* Measurement data measured by REW V5.31.3
* Source: Input device not selected, no input selected, L, volume: no control
* Format: 256k Log Swept Sine, 1 sweep at -12.0 dBFS with no timing reference
* Dated: Aug 25, 2024 6:50:21 AM
* REW Settings:
*  C-weighting compensation: Off
*  Target level: 75.0 dB
* Note: ; 
* Measurement: Airpods Pro 2 (Stock M) L
* Smoothing: 1/24 octave
* Frequency Step: 1/48 octave
* Start Frequency: 20.300 Hz
*
* Freq(Hz), SPL(dB), Phase(degrees)
20.299999, 79.292, -176.5775
20.600000, 79.275, -176.8084
20.900000, 79.255, -177.0090
21.200001, 79.239, -177.1616
21.400000, 79.233, -177.2509
21.799999, 79.236, -177.4590
22.000000, 79.241, -177.6019
22.400000, 79.250, -177.9880
22.700001, 79.247, -178.3428
23.000000, 79.232, -178.7079
23.299999, 79.206, -179.0385
23.600000, 79.175, -179.3065
24.000000, 79.135, -179.5664
24.299999, 79.111, -179.7175
24.700001, 79.087, -179.9162
25.000000, 79.072, 179.9135
25.400000, 79.053, 179.6564
25.799999, 79.033, 179.3898
26.200001, 79.014, 179.1415
26.500000, 79.003, 178.9730
26.900000, 78.993, 178.7620
27.200001, 78.988, 178.5999
27.600000, 78.982, 178.3593
28.000000, 78.968, 178.0891
28.500000, 78.932, 177.7684
29.000000, 78.878, 177.5922
29.500000, 78.832, 177.6295
30.000000, 78.824, 177.7423
30.400000, 78.844, 177.7046
30.700001, 78.863, 177.5381
31.100000, 78.876, 177.1573
31.500000, 78.862, 176.7175
32.000000, 78.819, 176.3205
32.500000, 78.783, 176.1993
33.000000, 78.776, 176.2178
33.500000, 78.784, 176.1740
34.000000, 78.778, 176.0226
34.500000, 78.750, 175.8554
35.000000, 78.719, 175.7431
35.500000, 78.702, 175.6599
36.000000, 78.696, 175.5493
36.500000, 78.692, 175.3961
37.000000, 78.683, 175.2147
37.500000, 78.673, 175.0081
38.200001, 78.662, 174.6666
38.700001, 78.656, 174.4189
39.500000, 78.637, 174.1633
40.000000, 78.617, 174.1359
40.599998, 78.592, 174.1808
41.200001, 78.580, 174.1800
41.799999, 78.583, 174.0310
42.500000, 78.587, 173.6935
43.099998, 78.573, 173.3926
43.700001, 78.546, 173.1790
44.400002, 78.529, 173.0172
45.000000, 78.537, 172.8619
45.500000, 78.544, 172.7232
46.200001, 78.528, 172.6424
46.799999, 78.499, 172.6676
47.500000, 78.476, 172.4642
48.200001, 78.452, 171.8451
48.700001, 78.420, 171.4229
49.400002, 78.382, 171.2822
50.000000, 78.387, 171.4625
50.799999, 78.411, 171.4432
51.500000, 78.395, 171.0916
52.200001, 78.368, 170.7756
53.000000, 78.366, 170.5574
53.799999, 78.362, 170.3257
54.500000, 78.332, 170.0984
55.200001, 78.291, 169.8869
56.000000, 78.248, 169.7095
57.000000, 78.220, 169.5745
58.000000, 78.209, 169.4563
59.000000, 78.194, 169.5151
60.000000, 78.173, 169.4807
60.799999, 78.129, 169.1614
61.500000, 78.077, 168.8640
62.200001, 78.033, 168.7173
63.000000, 77.995, 168.6805
64.000000, 77.943, 168.6031
65.000000, 77.906, 168.4928
66.000000, 77.892, 168.4240
67.000000, 77.870, 168.3959
68.000000, 77.850, 168.3725
69.000000, 77.829, 168.3118
70.000000, 77.787, 168.2892
71.000000, 77.751, 168.2255
72.000000, 77.729, 168.1603
73.000000, 77.709, 168.1730
74.000000, 77.681, 168.0994
75.000000, 77.659, 168.0381
76.199997, 77.650, 168.1421
77.500000, 77.630, 168.2744
78.800003, 77.611, 168.2176
80.000000, 77.579, 168.1690
81.199997, 77.556, 168.1992
82.500000, 77.561, 168.1896
83.800003, 77.553, 168.1037
85.000000, 77.531, 168.0905
86.199997, 77.508, 168.1084
87.500000, 77.489, 168.0445
88.500000, 77.494, 167.9778
90.000000, 77.505, 167.9731
91.199997, 77.498, 167.9774
92.500000, 77.489, 167.8844
93.800003, 77.482, 167.7785
95.000000, 77.467, 167.7345
96.199997, 77.444, 167.7062
97.500000, 77.440, 167.5630
98.800003, 77.459, 167.4355
100.000000, 77.466, 167.3778
101.500000, 77.432, 167.3130
103.000000, 77.400, 167.2039
104.400002, 77.384, 167.0359
106.000000, 77.376, 166.9045
107.500000, 77.383, 166.8307
109.000000, 77.382, 166.7674
110.599998, 77.355, 166.6717
112.000000, 77.314, 166.6678
113.800003, 77.289, 166.5897
115.000000, 77.287, 166.5099
117.199997, 77.268, 166.3443
118.000000, 77.255, 166.2276
120.599998, 77.217, 165.9483
122.000000, 77.196, 165.9399
124.099998, 77.174, 165.9998
125.000000, 77.162, 165.9367
126.500000, 77.137, 165.6992
128.000000, 77.106, 165.5765
131.500000, 77.024, 165.5510
132.000000, 77.022, 165.5106
134.000000, 77.006, 165.3726
136.000000, 76.970, 165.3645
138.000000, 76.929, 165.3839
140.000000, 76.885, 165.2277
143.000000, 76.805, 165.5086
145.000000, 76.758, 165.8795
147.500000, 76.704, 166.3239
150.000000, 76.729, 166.8398
152.500000, 76.747, 167.4788
155.000000, 76.749, 167.5325
157.500000, 76.794, 167.4310
160.000000, 76.849, 167.2673
162.500000, 76.885, 167.1838
165.000000, 76.895, 167.1669
167.500000, 76.865, 166.8242
170.000000, 76.846, 166.5678
172.500000, 76.845, 166.4518
175.000000, 76.840, 166.3519
177.500000, 76.810, 166.4839
180.000000, 76.782, 166.7791
182.500000, 76.780, 166.8566
185.000000, 76.788, 166.9245
187.500000, 76.786, 166.9631
190.000000, 76.779, 166.8893
192.500000, 76.782, 166.8024
195.000000, 76.773, 166.7538
197.500000, 76.749, 166.7741
200.000000, 76.744, 166.8505
203.000000, 76.762, 166.8800
206.000000, 76.763, 166.9001
209.000000, 76.766, 166.9656
212.000000, 76.766, 167.0434
214.000000, 76.767, 167.0755
218.000000, 76.771, 167.1848
220.000000, 76.776, 167.2827
224.000000, 76.787, 167.3940
227.000000, 76.796, 167.5193
230.000000, 76.824, 167.6285
233.000000, 76.857, 167.6749
236.000000, 76.876, 167.7728
240.000000, 76.903, 167.8331
243.000000, 76.936, 167.7921
247.000000, 76.989, 167.6911
250.000000, 77.021, 167.6982
254.000000, 77.058, 167.6805
258.000000, 77.103, 167.6483
262.000000, 77.154, 167.5611
265.000000, 77.187, 167.4898
269.000000, 77.231, 167.2915
272.000000, 77.270, 167.0989
276.000000, 77.320, 166.8923
280.000000, 77.370, 166.6683
285.000000, 77.420, 166.2004
290.000000, 77.467, 165.9552
295.000000, 77.526, 165.6068
300.000000, 77.571, 165.2233
304.000000, 77.604, 164.9302
307.000000, 77.631, 164.6191
311.000000, 77.661, 164.1705
315.000000, 77.690, 163.7953
320.000000, 77.711, 163.3713
325.000000, 77.716, 162.8517
330.000000, 77.724, 162.2680
335.000000, 77.731, 161.7502
340.000000, 77.741, 161.2253
345.000000, 77.757, 160.6877
350.000000, 77.766, 160.1886
355.000000, 77.764, 159.6857
360.000000, 77.760, 159.2090
365.000000, 77.741, 158.7275
370.000000, 77.715, 158.2817
375.000000, 77.698, 157.8644
382.000000, 77.681, 157.2629
387.000000, 77.661, 156.7515
395.000000, 77.621, 156.0040
400.000000, 77.597, 155.5677
406.000000, 77.565, 155.0409
412.000000, 77.530, 154.5775
418.000000, 77.485, 154.1217
425.000000, 77.431, 153.5778
431.000000, 77.387, 153.1631
437.000000, 77.339, 152.7479
444.000000, 77.276, 152.3703
450.000000, 77.219, 151.9839
455.000000, 77.169, 151.6238
462.000000, 77.108, 151.2445
468.000000, 77.055, 150.8985
475.000000, 76.988, 150.5350
482.000000, 76.922, 150.2317
487.000000, 76.875, 150.0667
494.000000, 76.803, 149.7973
500.000000, 76.736, 149.5640
508.000000, 76.651, 149.2657
515.000000, 76.580, 149.0409
522.000000, 76.510, 148.8507
530.000000, 76.423, 148.6771
538.000000, 76.343, 148.4890
545.000000, 76.269, 148.3553
552.000000, 76.189, 148.2629
560.000000, 76.102, 148.2001
570.000000, 75.995, 148.1922
580.000000, 75.885, 148.1553
590.000000, 75.787, 148.0895
600.000000, 75.699, 148.2150
608.000000, 75.630, 148.3527
615.000000, 75.571, 148.4688
622.000000, 75.520, 148.5972
630.000000, 75.457, 148.7529
640.000000, 75.359, 148.9893
650.000000, 75.264, 149.2361
660.000000, 75.179, 149.5473
670.000000, 75.113, 149.9056
680.000000, 75.059, 150.3123
690.000000, 75.002, 150.7233
700.000000, 74.960, 151.1200
710.000000, 74.930, 151.5367
720.000000, 74.882, 152.0416
730.000000, 74.844, 152.5381
740.000000, 74.832, 152.9214
750.000000, 74.843, 153.2902
762.000000, 74.855, 153.7775
775.000000, 74.866, 154.2475
788.000000, 74.886, 154.5150
800.000000, 74.895, 154.6097
812.000000, 74.906, 154.5905
825.000000, 74.913, 154.4921
838.000000, 74.894, 154.3919
850.000000, 74.853, 154.2954
862.000000, 74.787, 154.2522
875.000000, 74.703, 154.3322
885.000000, 74.628, 154.4772
900.000000, 74.524, 154.9336
912.000000, 74.449, 155.4607
925.000000, 74.374, 156.0889
938.000000, 74.324, 156.8598
950.000000, 74.286, 157.5786
962.000000, 74.262, 158.3616
975.000000, 74.244, 159.1483
988.000000, 74.236, 159.9000
1000.000000, 74.247, 160.7609
1015.000000, 74.305, 161.7098
1030.000000, 74.372, 162.3896
1044.000000, 74.432, 163.0681
1060.000000, 74.507, 163.8973
1075.000000, 74.580, 164.5278
1090.000000, 74.671, 165.0013
1106.000000, 74.778, 165.4882
1120.000000, 74.860, 165.8332
1138.000000, 74.953, 166.1730
1150.000000, 75.021, 166.4351
1172.000000, 75.144, 166.7361
1180.000000, 75.189, 166.8087
1206.000000, 75.320, 166.8969
1220.000000, 75.374, 166.9300
1241.000000, 75.444, 167.0679
1250.000000, 75.472, 167.1467
1265.000000, 75.512, 167.2478
1280.000000, 75.548, 167.2858
1315.000000, 75.634, 167.4147
1320.000000, 75.645, 167.4571
1340.000000, 75.693, 167.6691
1360.000000, 75.755, 167.8595
1380.000000, 75.816, 168.1286
1400.000000, 75.874, 168.3648
1430.000000, 75.971, 168.6613
1450.000000, 76.046, 168.8832
1475.000000, 76.155, 169.0331
1500.000000, 76.262, 168.9999
1525.000000, 76.359, 168.7953
1550.000000, 76.451, 168.5710
1575.000000, 76.500, 168.2908
1600.000000, 76.529, 167.9467
1625.000000, 76.538, 167.7238
1650.000000, 76.515, 167.5598
1675.000000, 76.487, 167.5662
1700.000000, 76.459, 167.6906
1725.000000, 76.431, 167.9296
1750.000000, 76.402, 168.2749
1775.000000, 76.383, 168.7600
1800.000000, 76.381, 169.3452
1825.000000, 76.391, 169.9159
1850.000000, 76.410, 170.4854
1875.000000, 76.437, 171.0648
1900.000000, 76.470, 171.6177
1925.000000, 76.509, 172.2372
1950.000000, 76.545, 172.8533
1975.000000, 76.581, 173.4172
2000.000000, 76.634, 173.9869
2030.000000, 76.708, 174.7109
2060.000000, 76.776, 175.3976
2090.000000, 76.852, 176.0894
2120.000000, 76.936, 176.8508
2140.000000, 76.994, 177.3955
2180.000000, 77.132, 178.4193
2200.000000, 77.213, 178.8001
2240.000000, 77.381, 179.6862
2270.000000, 77.518, -179.6269
2300.000000, 77.667, -179.0275
2330.000000, 77.813, -178.5116
2360.000000, 77.960, -177.9908
2400.000000, 78.168, -177.3288
2430.000000, 78.324, -176.9976
2470.000000, 78.540, -176.5699
2500.000000, 78.703, -176.2670
2540.000000, 78.920, -175.9869
2580.000000, 79.142, -175.7269
2620.000000, 79.377, -175.5346
2650.000000, 79.562, -175.4939
2690.000000, 79.809, -175.5635
2720.000000, 80.002, -175.6912
2760.000000, 80.274, -175.9547
2800.000000, 80.545, -176.4346
2850.000000, 80.861, -177.4828
2900.000000, 81.136, -178.9122
2950.000000, 81.362, 179.4395
3000.000000, 81.534, 177.6754
3040.000000, 81.639, 176.2781
3070.000000, 81.698, 175.2126
3110.000000, 81.749, 173.8054
3150.000000, 81.767, 172.4697
3200.000000, 81.756, 170.7682
3250.000000, 81.711, 169.1753
3300.000000, 81.625, 167.7522
3350.000000, 81.515, 166.4974
3400.000000, 81.380, 165.4279
3450.000000, 81.228, 164.5112
3500.000000, 81.067, 163.7825
3550.000000, 80.894, 163.2285
3600.000000, 80.717, 162.8237
3650.000000, 80.531, 162.5847
3700.000000, 80.333, 162.4612
3750.000000, 80.129, 162.4429
3820.000000, 79.842, 162.6874
3870.000000, 79.646, 163.0652
3950.000000, 79.340, 164.0255
4000.000000, 79.158, 164.7933
4060.000000, 78.952, 165.8309
4120.000000, 78.753, 167.0032
4180.000000, 78.567, 168.2496
4250.000000, 78.360, 169.7583
4310.000000, 78.189, 171.1562
4370.000000, 78.030, 172.6737
4440.000000, 77.861, 174.5923
4500.000000, 77.733, 176.3099
4550.000000, 77.635, 177.7937
4620.000000, 77.507, 179.9156
4680.000000, 77.418, -178.1483
4750.000000, 77.332, -175.8744
4820.000000, 77.261, -173.5199
4870.000000, 77.219, -171.8137
4940.000000, 77.173, -169.4249
5000.000000, 77.149, -167.3701
5080.000000, 77.146, -164.6596
5150.000000, 77.146, -162.2317
5220.000000, 77.158, -159.7530
5300.000000, 77.206, -156.8741
5380.000000, 77.285, -154.0066
5450.000000, 77.373, -151.5506
5520.000000, 77.483, -149.1810
5600.000000, 77.639, -146.5502
5700.000000, 77.859, -143.4004
5800.000000, 78.108, -140.5070
5900.000000, 78.405, -137.9198
6000.000000, 78.715, -135.9175
6080.000000, 78.950, -134.7332
6150.000000, 79.136, -133.9130
6220.000000, 79.297, -133.2595
6300.000000, 79.448, -132.7257
6400.000000, 79.570, -132.2200
6500.000000, 79.616, -131.8089
6600.000000, 79.585, -131.2404
6700.000000, 79.489, -130.4061
6800.000000, 79.357, -129.2949
6900.000000, 79.197, -127.7314
7000.000000, 79.042, -125.7108
7100.000000, 78.916, -123.2766
7200.000000, 78.839, -120.5302
7300.000000, 78.807, -117.6830
7400.000000, 78.818, -114.8378
7500.000000, 78.883, -112.0409
7620.000000, 79.019, -108.8224
7750.000000, 79.249, -105.6538
7880.000000, 79.552, -102.8978
8000.000000, 79.891, -100.9097
8120.000000, 80.276, -99.8293
8250.000000, 80.706, -99.9208
8380.000000, 81.071, -101.4111
8500.000000, 81.290, -104.1973
8620.000000, 81.283, -108.0959
8750.000000, 80.928, -112.7760
8850.000000, 80.411, -116.0225
9000.000000, 79.335, -119.3380
9120.000000, 78.306, -120.2886
9250.000000, 77.119, -119.5935
9380.000000, 75.943, -117.3227
9500.000000, 74.923, -114.1290
9620.000000, 73.975, -110.1842
9750.000000, 73.026, -105.2286
9880.000000, 72.166, -99.6646
10000.000000, 71.432, -94.2866
10150.000000, 70.601, -87.3985
10300.000000, 69.878, -80.3253
10440.000000, 69.258, -73.5247
10600.000000, 68.591, -65.7146
10750.000000, 68.007, -58.3699
10900.000000, 67.472, -51.0814
11060.000000, 66.879, -42.9799
11200.000000, 66.369, -35.1879
11380.000000, 65.798, -24.5636
11500.000000, 65.495, -17.2211
11720.000000, 65.101, -3.4363
11800.000000, 64.993, 1.5693
12060.000000, 64.858, 17.3408
12200.000000, 64.896, 25.4265
12410.000000, 65.005, 36.8236
12500.000000, 65.044, 41.5209
12650.000000, 65.109, 49.2888
12800.000000, 65.173, 56.9981
13150.000000, 65.437, 76.0767
13200.000000, 65.515, 78.9231
13400.000000, 65.975, 90.3556
13600.000000, 66.659, 101.3240
13800.000000, 67.497, 111.6044
14000.000000, 68.515, 120.8825
14300.000000, 70.403, 131.8899
14500.000000, 71.942, 136.3266
14750.000000, 73.967, 136.4535
15000.000000, 75.543, 129.6598
15250.000000, 76.044, 118.4956
15500.000000, 75.326, 108.4046
15750.000000, 73.844, 103.4257
16000.000000, 72.231, 103.8939
16250.000000, 70.859, 107.9225
16500.000000, 69.795, 113.8886
16750.000000, 69.047, 120.7310
17000.000000, 68.605, 127.8449
17250.000000, 68.455, 134.3317
17500.000000, 68.573, 139.5641
17750.000000, 68.913, 142.6009
18000.000000, 69.365, 142.8668
18250.000000, 69.793, 140.1761
18500.000000, 69.965, 133.8279
18750.000000, 69.492, 125.0259
19000.000000, 67.841, 117.7001
19250.000000, 64.059, 114.8527
19500.000000, 57.888, 115.5842
19750.000000, 51.108, 116.5249
20000.000000, 47.758, 77.8695
