* Measurement data measured by REW V5.31.3
* Source: Input device not selected, no input selected, L, volume: no control
* Format: 256k Log Swept Sine, 1 sweep at -12.0 dBFS with no timing reference
* Dated: Nov 15, 2024 3:38:14 PM
* REW Settings:
*  C-weighting compensation: Off
*  Target level: 75.0 dB
* Note: 
* Measurement: Blessing 2 Dusk (Stock M) L
* Smoothing: 1/24 octave
* Frequency Step: 1/48 octave
* Start Frequency: 20.300 Hz
*
* Freq(Hz), SPL(dB), Phase(degrees)
20.299999, 89.977, 12.2619
20.600000, 89.951, 11.9473
20.900000, 89.921, 11.6062
21.200001, 89.899, 11.2687
21.400000, 89.892, 11.0419
21.799999, 89.898, 10.5749
22.000000, 89.910, 10.3339
22.400000, 89.938, 9.8440
22.700001, 89.957, 9.4769
23.000000, 89.967, 9.1158
23.299999, 89.968, 8.7625
23.600000, 89.960, 8.4181
24.000000, 89.942, 7.9791
24.299999, 89.928, 7.6762
24.700001, 89.919, 7.3279
25.000000, 89.923, 7.1142
25.400000, 89.943, 6.8687
25.799999, 89.973, 6.5994
26.200001, 89.996, 6.2265
26.500000, 89.997, 5.8643
26.900000, 89.970, 5.3334
27.200001, 89.934, 4.9829
27.600000, 89.885, 4.7004
28.000000, 89.874, 4.6730
28.500000, 89.941, 4.8122
29.000000, 90.062, 4.7645
29.500000, 90.138, 4.3486
30.000000, 90.103, 3.7331
30.400000, 90.004, 3.2714
30.700001, 89.913, 2.9760
31.100000, 89.802, 2.6121
31.500000, 89.726, 2.2157
32.000000, 89.683, 1.6705
32.500000, 89.678, 1.2046
33.000000, 89.692, 0.9202
33.500000, 89.706, 0.7343
34.000000, 89.697, 0.5015
34.500000, 89.658, 0.1996
35.000000, 89.610, -0.0937
35.500000, 89.585, -0.3537
36.000000, 89.590, -0.6407
36.500000, 89.599, -0.9780
37.000000, 89.587, -1.2966
37.500000, 89.555, -1.5426
38.200001, 89.505, -1.8894
38.700001, 89.474, -2.2452
39.500000, 89.427, -2.8485
40.000000, 89.407, -3.0842
40.599998, 89.400, -3.2433
41.200001, 89.395, -3.4172
41.799999, 89.370, -3.6667
42.500000, 89.321, -3.9862
43.099998, 89.290, -4.2385
43.700001, 89.286, -4.4664
44.400002, 89.301, -4.6899
45.000000, 89.310, -4.8583
45.500000, 89.300, -5.0286
46.200001, 89.255, -5.3793
46.799999, 89.198, -5.7581
47.500000, 89.141, -6.1691
48.200001, 89.120, -6.4595
48.700001, 89.120, -6.6000
49.400002, 89.120, -6.7522
50.000000, 89.109, -6.8961
50.799999, 89.080, -7.1785
51.500000, 89.044, -7.4789
52.200001, 89.002, -7.7508
53.000000, 88.954, -8.0190
53.799999, 88.906, -8.2360
54.500000, 88.876, -8.3468
55.200001, 88.859, -8.4445
56.000000, 88.833, -8.6443
57.000000, 88.781, -8.9720
58.000000, 88.757, -9.3104
59.000000, 88.755, -9.6437
60.000000, 88.716, -9.9029
60.799999, 88.651, -10.0639
61.500000, 88.591, -10.1904
62.200001, 88.545, -10.3215
63.000000, 88.511, -10.4696
64.000000, 88.477, -10.6297
65.000000, 88.445, -10.8350
66.000000, 88.410, -11.0937
67.000000, 88.366, -11.2928
68.000000, 88.317, -11.4877
69.000000, 88.262, -11.7915
70.000000, 88.196, -11.9976
71.000000, 88.129, -12.0817
72.000000, 88.056, -12.2806
73.000000, 87.995, -12.4685
74.000000, 87.980, -12.5664
75.000000, 87.980, -12.7542
76.199997, 87.954, -13.0976
77.500000, 87.902, -13.3577
78.800003, 87.855, -13.4717
80.000000, 87.797, -13.5602
81.199997, 87.726, -13.6084
82.500000, 87.671, -13.8366
83.800003, 87.622, -13.9793
85.000000, 87.571, -14.0188
86.199997, 87.517, -14.1289
87.500000, 87.467, -14.2066
88.500000, 87.421, -14.2449
90.000000, 87.346, -14.4231
91.199997, 87.293, -14.5660
92.500000, 87.239, -14.6473
93.800003, 87.177, -14.6898
95.000000, 87.116, -14.7788
96.199997, 87.057, -14.8940
97.500000, 87.006, -14.9962
98.800003, 86.959, -15.0991
100.000000, 86.905, -15.1847
101.500000, 86.826, -15.2761
103.000000, 86.759, -15.3513
104.400002, 86.701, -15.3935
106.000000, 86.632, -15.4073
107.500000, 86.566, -15.4022
109.000000, 86.506, -15.4110
110.599998, 86.440, -15.4259
112.000000, 86.374, -15.4605
113.800003, 86.305, -15.4762
115.000000, 86.256, -15.4938
117.199997, 86.152, -15.4966
118.000000, 86.115, -15.4931
120.599998, 86.012, -15.4412
122.000000, 85.957, -15.3547
124.099998, 85.867, -15.2032
125.000000, 85.829, -15.1370
126.500000, 85.770, -15.0513
128.000000, 85.706, -15.0317
131.500000, 85.553, -15.0343
132.000000, 85.532, -15.0148
134.000000, 85.456, -14.8698
136.000000, 85.378, -14.6783
138.000000, 85.295, -14.5122
140.000000, 85.214, -14.3410
143.000000, 85.097, -14.1383
145.000000, 85.017, -14.0290
147.500000, 84.922, -13.8644
150.000000, 84.825, -13.6494
152.500000, 84.734, -13.4114
155.000000, 84.643, -13.1915
157.500000, 84.547, -12.9414
160.000000, 84.452, -12.6939
162.500000, 84.355, -12.4332
165.000000, 84.259, -12.1267
167.500000, 84.162, -11.8387
170.000000, 84.064, -11.5385
172.500000, 83.964, -11.2022
175.000000, 83.869, -10.7703
177.500000, 83.770, -10.2978
180.000000, 83.663, -9.8432
182.500000, 83.546, -9.4013
185.000000, 83.418, -8.8928
187.500000, 83.298, -8.1639
190.000000, 83.217, -7.1945
192.500000, 83.199, -6.1350
195.000000, 83.240, -5.0997
197.500000, 83.301, -4.3899
200.000000, 83.351, -4.1567
203.000000, 83.358, -4.1599
206.000000, 83.308, -4.0285
209.000000, 83.250, -4.0224
212.000000, 83.194, -3.8931
214.000000, 83.148, -3.7196
218.000000, 83.043, -3.3229
220.000000, 82.989, -3.0828
224.000000, 82.895, -2.5449
227.000000, 82.826, -2.1340
230.000000, 82.758, -1.6746
233.000000, 82.691, -1.1618
236.000000, 82.620, -0.6945
240.000000, 82.537, -0.1833
243.000000, 82.482, 0.2827
247.000000, 82.399, 1.0189
250.000000, 82.340, 1.5299
254.000000, 82.274, 2.1907
258.000000, 82.208, 2.9052
262.000000, 82.139, 3.5926
265.000000, 82.089, 4.1106
269.000000, 82.029, 4.8234
272.000000, 81.986, 5.3452
276.000000, 81.934, 6.0612
280.000000, 81.885, 6.7765
285.000000, 81.822, 7.6403
290.000000, 81.762, 8.5174
295.000000, 81.708, 9.3747
300.000000, 81.657, 10.2521
304.000000, 81.617, 10.9472
307.000000, 81.587, 11.4592
311.000000, 81.547, 12.1313
315.000000, 81.511, 12.8205
320.000000, 81.473, 13.6973
325.000000, 81.437, 14.5315
330.000000, 81.402, 15.3505
335.000000, 81.369, 16.1687
340.000000, 81.340, 16.9884
345.000000, 81.309, 17.8096
350.000000, 81.277, 18.6294
355.000000, 81.252, 19.4517
360.000000, 81.234, 20.2438
365.000000, 81.212, 21.0156
370.000000, 81.189, 21.7970
375.000000, 81.166, 22.5935
382.000000, 81.143, 23.6727
387.000000, 81.128, 24.4135
395.000000, 81.104, 25.5912
400.000000, 81.091, 26.3273
406.000000, 81.078, 27.1974
412.000000, 81.064, 28.0881
418.000000, 81.054, 28.9600
425.000000, 81.050, 29.9530
431.000000, 81.049, 30.7894
437.000000, 81.046, 31.6016
444.000000, 81.043, 32.5085
450.000000, 81.039, 33.2998
455.000000, 81.036, 33.9420
462.000000, 81.033, 34.8006
468.000000, 81.033, 35.5573
475.000000, 81.029, 36.4518
482.000000, 81.024, 37.3433
487.000000, 81.021, 37.9720
494.000000, 81.016, 38.8486
500.000000, 81.014, 39.5639
508.000000, 81.011, 40.5083
515.000000, 81.007, 41.3529
522.000000, 81.006, 42.1900
530.000000, 81.006, 43.1463
538.000000, 81.007, 44.1347
545.000000, 81.010, 44.9879
552.000000, 81.014, 45.8341
560.000000, 81.021, 46.8025
570.000000, 81.038, 47.9685
580.000000, 81.055, 49.0769
590.000000, 81.070, 50.1360
600.000000, 81.077, 51.1624
608.000000, 81.081, 52.0053
615.000000, 81.087, 52.7567
622.000000, 81.093, 53.4751
630.000000, 81.098, 54.3145
640.000000, 81.105, 55.3949
650.000000, 81.111, 56.4345
660.000000, 81.115, 57.4871
670.000000, 81.121, 58.5461
680.000000, 81.126, 59.5983
690.000000, 81.134, 60.6585
700.000000, 81.140, 61.7353
710.000000, 81.147, 62.8055
720.000000, 81.156, 63.8725
730.000000, 81.168, 64.9221
740.000000, 81.181, 65.9791
750.000000, 81.196, 67.0637
762.000000, 81.215, 68.3730
775.000000, 81.237, 69.7962
788.000000, 81.264, 71.2297
800.000000, 81.289, 72.5290
812.000000, 81.317, 73.8411
825.000000, 81.353, 75.2803
838.000000, 81.391, 76.7160
850.000000, 81.432, 78.0387
862.000000, 81.478, 79.3592
875.000000, 81.533, 80.7665
885.000000, 81.579, 81.8615
900.000000, 81.650, 83.5098
912.000000, 81.714, 84.8035
925.000000, 81.790, 86.2105
938.000000, 81.871, 87.5923
950.000000, 81.951, 88.8483
962.000000, 82.037, 90.0940
975.000000, 82.139, 91.4074
988.000000, 82.248, 92.6939
1000.000000, 82.352, 93.8549
1015.000000, 82.485, 95.2419
1030.000000, 82.627, 96.5614
1044.000000, 82.765, 97.7409
1060.000000, 82.930, 99.0033
1075.000000, 83.089, 100.0866
1090.000000, 83.251, 101.0813
1106.000000, 83.422, 102.0177
1120.000000, 83.568, 102.7472
1138.000000, 83.750, 103.6004
1150.000000, 83.866, 104.1027
1172.000000, 84.066, 104.9164
1180.000000, 84.134, 105.1936
1206.000000, 84.338, 106.0237
1220.000000, 84.433, 106.4309
1241.000000, 84.565, 106.9934
1250.000000, 84.617, 107.2341
1265.000000, 84.699, 107.6449
1280.000000, 84.776, 108.0473
1315.000000, 84.931, 108.9964
1320.000000, 84.951, 109.1353
1340.000000, 85.027, 109.7059
1360.000000, 85.096, 110.2887
1380.000000, 85.160, 110.8921
1400.000000, 85.219, 111.4918
1430.000000, 85.302, 112.4331
1450.000000, 85.351, 113.0964
1475.000000, 85.408, 113.9543
1500.000000, 85.467, 114.8352
1525.000000, 85.522, 115.7245
1550.000000, 85.576, 116.6120
1575.000000, 85.631, 117.5417
1600.000000, 85.685, 118.5029
1625.000000, 85.738, 119.4640
1650.000000, 85.794, 120.4240
1675.000000, 85.851, 121.4043
1700.000000, 85.908, 122.3998
1725.000000, 85.967, 123.3941
1750.000000, 86.027, 124.3897
1775.000000, 86.089, 125.3912
1800.000000, 86.154, 126.3905
1825.000000, 86.220, 127.3798
1850.000000, 86.289, 128.3746
1875.000000, 86.362, 129.3623
1900.000000, 86.436, 130.3346
1925.000000, 86.511, 131.2954
1950.000000, 86.588, 132.2407
1975.000000, 86.669, 133.1859
2000.000000, 86.752, 134.1244
2030.000000, 86.854, 135.2094
2060.000000, 86.958, 136.2733
2090.000000, 87.067, 137.3217
2120.000000, 87.178, 138.3398
2140.000000, 87.253, 138.9927
2180.000000, 87.405, 140.2431
2200.000000, 87.483, 140.8510
2240.000000, 87.643, 142.0331
2270.000000, 87.766, 142.8730
2300.000000, 87.889, 143.6711
2330.000000, 88.013, 144.4338
2360.000000, 88.138, 145.1624
2400.000000, 88.307, 146.0638
2430.000000, 88.434, 146.6850
2470.000000, 88.604, 147.4411
2500.000000, 88.730, 147.9588
2540.000000, 88.897, 148.5750
2580.000000, 89.062, 149.1065
2620.000000, 89.224, 149.5585
2650.000000, 89.343, 149.8382
2690.000000, 89.496, 150.1364
2720.000000, 89.608, 150.3029
2760.000000, 89.748, 150.4541
2800.000000, 89.881, 150.5272
2850.000000, 90.034, 150.5147
2900.000000, 90.170, 150.3801
2950.000000, 90.286, 150.1525
3000.000000, 90.380, 149.8316
3040.000000, 90.438, 149.5443
3070.000000, 90.471, 149.3128
3110.000000, 90.502, 148.9879
3150.000000, 90.518, 148.6688
3200.000000, 90.519, 148.2931
3250.000000, 90.502, 147.9400
3300.000000, 90.471, 147.6155
3350.000000, 90.425, 147.3091
3400.000000, 90.363, 147.0149
3450.000000, 90.283, 146.7524
3500.000000, 90.184, 146.5610
3550.000000, 90.071, 146.4645
3600.000000, 89.948, 146.4633
3650.000000, 89.818, 146.5410
3700.000000, 89.686, 146.6958
3750.000000, 89.549, 146.9280
3820.000000, 89.350, 147.3604
3870.000000, 89.205, 147.7455
3950.000000, 88.966, 148.4888
4000.000000, 88.813, 149.0325
4060.000000, 88.622, 149.7703
4120.000000, 88.428, 150.6406
4180.000000, 88.233, 151.6651
4250.000000, 88.015, 153.0512
4310.000000, 87.841, 154.3849
4370.000000, 87.685, 155.8064
4440.000000, 87.525, 157.5219
4500.000000, 87.405, 159.0290
4550.000000, 87.314, 160.2986
4620.000000, 87.199, 162.0752
4680.000000, 87.110, 163.6067
4750.000000, 87.016, 165.4103
4820.000000, 86.933, 167.2274
4870.000000, 86.882, 168.5328
4940.000000, 86.821, 170.3735
5000.000000, 86.781, 171.9875
5080.000000, 86.744, 174.1624
5150.000000, 86.732, 176.0841
5220.000000, 86.744, 178.0155
5300.000000, 86.791, -179.7983
5380.000000, 86.880, -177.6758
5450.000000, 86.994, -175.9278
5520.000000, 87.146, -174.3487
5600.000000, 87.367, -172.8727
5700.000000, 87.704, -171.7862
5800.000000, 88.059, -171.9131
5900.000000, 88.328, -173.4950
6000.000000, 88.373, -176.2164
6080.000000, 88.184, -178.5508
6150.000000, 87.860, 179.8342
6220.000000, 87.428, 178.9619
6300.000000, 86.870, 179.0673
6400.000000, 86.183, -179.2561
6500.000000, 85.593, -176.3210
6600.000000, 85.139, -172.6461
6700.000000, 84.817, -168.6288
6800.000000, 84.614, -164.4778
6900.000000, 84.514, -160.3286
7000.000000, 84.503, -156.2953
7100.000000, 84.567, -152.4271
7200.000000, 84.700, -148.7532
7300.000000, 84.889, -145.2993
7400.000000, 85.130, -142.0090
7500.000000, 85.435, -138.9213
7620.000000, 85.890, -135.5529
7750.000000, 86.501, -132.4090
7880.000000, 87.246, -130.0477
8000.000000, 88.047, -128.8742
8120.000000, 88.937, -129.0389
8250.000000, 89.939, -131.1833
8380.000000, 90.853, -135.7033
8500.000000, 91.446, -141.7835
8620.000000, 91.678, -148.4470
8750.000000, 91.775, -154.5408
8850.000000, 91.927, -160.1183
9000.000000, 91.565, -170.7165
9120.000000, 90.723, -177.3217
9250.000000, 89.664, 178.2793
9380.000000, 88.653, 175.9218
9500.000000, 87.813, 174.8903
9620.000000, 87.067, 174.5423
9750.000000, 86.355, 174.6304
9880.000000, 85.733, 174.9726
10000.000000, 85.222, 175.3383
10150.000000, 84.641, 175.7212
10300.000000, 84.090, 176.0229
10440.000000, 83.584, 176.3153
10600.000000, 83.007, 176.7516
10750.000000, 82.467, 177.3392
10900.000000, 81.936, 178.1554
11060.000000, 81.394, 179.2801
11200.000000, 80.951, -179.5547
11380.000000, 80.437, -177.9430
11500.000000, 80.125, -176.8455
11720.000000, 79.604, -174.9137
11800.000000, 79.427, -174.2553
12060.000000, 78.878, -172.3038
12200.000000, 78.591, -171.3397
12410.000000, 78.164, -169.9287
12500.000000, 77.977, -169.3286
12650.000000, 77.668, -168.2944
12800.000000, 77.360, -167.1892
13150.000000, 76.669, -164.1627
13200.000000, 76.578, -163.6646
13400.000000, 76.239, -161.5294
13600.000000, 75.959, -159.1411
13800.000000, 75.766, -156.5299
14000.000000, 75.681, -153.7740
14300.000000, 75.824, -149.7937
14500.000000, 76.114, -147.8204
14750.000000, 76.658, -146.6176
15000.000000, 77.344, -147.2178
15250.000000, 78.070, -149.9044
15500.000000, 78.709, -154.6645
15750.000000, 79.142, -160.9741
16000.000000, 79.309, -167.8976
16250.000000, 79.234, -174.4503
16500.000000, 79.023, 179.9990
16750.000000, 78.802, 175.4833
17000.000000, 78.644, 171.7214
17250.000000, 78.602, 168.2972
17500.000000, 78.693, 164.5310
17750.000000, 78.845, 159.7861
18000.000000, 78.974, 153.8918
18250.000000, 79.079, 146.7181
18500.000000, 79.147, 137.5681
18750.000000, 79.021, 125.6205
19000.000000, 78.474, 111.0394
19250.000000, 77.397, 94.4973
19500.000000, 75.755, 76.3464
19750.000000, 73.623, 57.5797
