* Measurement data measured by REW V5.31.3
* Source: Trace Arithmetic result (A + B) / 2
* Format: Trace Arithmetic result (A + B) / 2
* Dated: Nov 9, 2024 4:21:41 AM
* REW Settings:
*  C-weighting compensation: Off
*  Target level: 75.0 dB
* Note: Trace Arithmetic A,B average A = Bluelover (Stock M) L B = Bluelover (10ohm, M) S2 L
* Measurement: Bluelover (10ohm AVG, S M) L
* Smoothing: 1/24 octave
* Frequency Step: 1/48 octave
* Start Frequency: 20.300 Hz
*
* Freq(Hz), SPL(dB), Phase(degrees)
20.299999, 82.784, 8.7128
20.600000, 82.785, 8.2495
20.900000, 82.782, 7.7523
21.200001, 82.780, 7.2523
21.400000, 82.779, 6.9161
21.799999, 82.779, 6.2364
22.000000, 82.779, 5.8953
22.400000, 82.777, 5.2212
22.700001, 82.773, 4.7306
23.000000, 82.766, 4.2557
23.299999, 82.759, 3.7933
23.600000, 82.752, 3.3366
24.000000, 82.745, 2.7234
24.299999, 82.741, 2.2547
24.700001, 82.736, 1.6199
25.000000, 82.731, 1.1437
25.400000, 82.722, 0.5219
25.799999, 82.710, -0.0744
26.200001, 82.694, -0.6437
26.500000, 82.682, -1.0564
26.900000, 82.666, -1.5942
27.200001, 82.654, -1.9913
27.600000, 82.639, -2.5139
28.000000, 82.625, -3.0276
28.500000, 82.607, -3.6544
29.000000, 82.584, -4.2631
29.500000, 82.556, -4.8568
30.000000, 82.524, -5.4443
30.400000, 82.500, -5.9170
30.700001, 82.482, -6.2750
31.100000, 82.459, -6.7539
31.500000, 82.437, -7.2261
32.000000, 82.406, -7.7893
32.500000, 82.373, -8.3152
33.000000, 82.339, -8.8206
33.500000, 82.307, -9.3352
34.000000, 82.276, -9.8712
34.500000, 82.243, -10.4103
35.000000, 82.207, -10.9210
35.500000, 82.169, -11.3906
36.000000, 82.131, -11.8364
36.500000, 82.093, -12.2879
37.000000, 82.055, -12.7603
37.500000, 82.017, -13.2463
38.200001, 81.964, -13.9175
38.700001, 81.926, -14.3757
39.500000, 81.863, -15.0650
40.000000, 81.822, -15.4695
40.599998, 81.775, -15.9335
41.200001, 81.729, -16.3812
41.799999, 81.680, -16.8132
42.500000, 81.618, -17.2963
43.099998, 81.564, -17.7036
43.700001, 81.511, -18.1174
44.400002, 81.450, -18.6013
45.000000, 81.396, -19.0029
45.500000, 81.350, -19.3329
46.200001, 81.284, -19.8107
46.799999, 81.228, -20.2309
47.500000, 81.163, -20.6841
48.200001, 81.102, -21.0662
48.700001, 81.058, -21.3187
49.400002, 80.993, -21.6966
50.000000, 80.931, -22.0554
50.799999, 80.847, -22.5266
51.500000, 80.779, -22.8839
52.200001, 80.716, -23.2053
53.000000, 80.642, -23.5815
53.799999, 80.561, -23.9693
54.500000, 80.491, -24.2884
55.200001, 80.423, -24.5819
56.000000, 80.344, -24.9118
57.000000, 80.237, -25.3530
58.000000, 80.136, -25.8010
59.000000, 80.047, -26.1958
60.000000, 79.951, -26.5236
60.799999, 79.864, -26.7548
61.500000, 79.790, -26.9701
62.200001, 79.719, -27.2102
63.000000, 79.640, -27.4765
64.000000, 79.543, -27.7643
65.000000, 79.444, -28.0540
66.000000, 79.337, -28.2829
67.000000, 79.231, -28.4531
68.000000, 79.127, -28.6905
69.000000, 79.025, -28.9367
70.000000, 78.930, -29.1192
71.000000, 78.829, -29.2638
72.000000, 78.720, -29.3804
73.000000, 78.617, -29.5188
74.000000, 78.520, -29.7102
75.000000, 78.422, -29.8626
76.199997, 78.305, -29.9241
77.500000, 78.172, -29.9994
78.800003, 78.042, -30.1304
80.000000, 77.925, -30.1807
81.199997, 77.805, -30.1977
82.500000, 77.676, -30.2255
83.800003, 77.553, -30.2030
85.000000, 77.441, -30.1641
86.199997, 77.330, -30.1640
87.500000, 77.203, -30.1456
88.500000, 77.107, -30.0553
90.000000, 76.971, -29.8920
91.199997, 76.860, -29.7972
92.500000, 76.743, -29.6956
93.800003, 76.628, -29.5710
95.000000, 76.528, -29.4088
96.199997, 76.426, -29.2113
97.500000, 76.307, -29.0145
98.800003, 76.194, -28.8519
100.000000, 76.101, -28.6497
101.500000, 75.986, -28.3575
103.000000, 75.864, -28.0390
104.400002, 75.754, -27.7522
106.000000, 75.634, -27.4051
107.500000, 75.519, -27.0395
109.000000, 75.405, -26.6822
110.599998, 75.292, -26.2519
112.000000, 75.196, -25.8473
113.800003, 75.073, -25.3409
115.000000, 74.991, -25.0504
117.199997, 74.846, -24.4749
118.000000, 74.795, -24.2271
120.599998, 74.637, -23.3603
122.000000, 74.560, -22.8890
124.099998, 74.442, -22.2410
125.000000, 74.393, -21.9747
126.500000, 74.315, -21.4918
128.000000, 74.239, -20.9533
131.500000, 74.071, -19.8386
132.000000, 74.050, -19.6702
134.000000, 73.965, -18.9432
136.000000, 73.884, -18.2257
138.000000, 73.801, -17.5821
140.000000, 73.724, -16.8681
143.000000, 73.628, -15.7513
145.000000, 73.552, -15.0541
147.500000, 73.469, -14.1665
150.000000, 73.407, -13.2667
152.500000, 73.345, -12.4015
155.000000, 73.284, -11.5896
157.500000, 73.238, -10.7973
160.000000, 73.203, -9.9404
162.500000, 73.159, -9.1027
165.000000, 73.109, -8.2884
167.500000, 73.070, -7.4720
170.000000, 73.044, -6.7293
172.500000, 73.017, -5.9955
175.000000, 72.986, -5.1678
177.500000, 72.963, -4.4249
180.000000, 72.950, -3.7460
182.500000, 72.931, -3.0031
185.000000, 72.922, -2.3120
187.500000, 72.914, -1.6658
190.000000, 72.904, -1.0196
192.500000, 72.898, -0.3855
195.000000, 72.896, 0.2506
197.500000, 72.893, 0.8614
200.000000, 72.894, 1.4477
203.000000, 72.903, 2.1592
206.000000, 72.900, 2.7857
209.000000, 72.891, 3.4021
212.000000, 72.887, 4.0388
214.000000, 72.892, 4.4443
218.000000, 72.907, 5.2569
220.000000, 72.912, 5.6374
224.000000, 72.922, 6.3699
227.000000, 72.935, 6.9279
230.000000, 72.944, 7.4507
233.000000, 72.948, 7.9100
236.000000, 72.954, 8.3916
240.000000, 72.972, 9.0859
243.000000, 72.980, 9.5581
247.000000, 72.987, 10.1262
250.000000, 72.999, 10.5309
254.000000, 73.017, 11.0938
258.000000, 73.025, 11.6584
262.000000, 73.037, 12.1914
265.000000, 73.049, 12.5869
269.000000, 73.057, 13.0325
272.000000, 73.059, 13.3852
276.000000, 73.065, 13.9030
280.000000, 73.065, 14.3455
285.000000, 73.066, 14.8823
290.000000, 73.081, 15.4972
295.000000, 73.093, 16.0011
300.000000, 73.101, 16.4934
304.000000, 73.105, 16.9602
307.000000, 73.105, 17.2988
311.000000, 73.106, 17.7016
315.000000, 73.111, 18.0765
320.000000, 73.117, 18.5150
325.000000, 73.115, 18.9570
330.000000, 73.112, 19.4495
335.000000, 73.111, 19.9449
340.000000, 73.109, 20.3924
345.000000, 73.112, 20.8108
350.000000, 73.116, 21.2558
355.000000, 73.114, 21.7167
360.000000, 73.110, 22.1686
365.000000, 73.102, 22.5848
370.000000, 73.094, 22.9748
375.000000, 73.088, 23.3834
382.000000, 73.076, 24.0143
387.000000, 73.068, 24.4284
395.000000, 73.058, 25.0418
400.000000, 73.047, 25.4377
406.000000, 73.033, 25.9942
412.000000, 73.022, 26.5149
418.000000, 73.010, 27.0045
425.000000, 72.989, 27.5473
431.000000, 72.973, 28.0623
437.000000, 72.959, 28.6158
444.000000, 72.944, 29.1803
450.000000, 72.928, 29.6378
455.000000, 72.918, 30.0349
462.000000, 72.902, 30.6215
468.000000, 72.891, 31.1882
475.000000, 72.875, 31.7901
482.000000, 72.851, 32.3436
487.000000, 72.837, 32.7633
494.000000, 72.819, 33.3540
500.000000, 72.800, 33.8855
508.000000, 72.777, 34.5905
515.000000, 72.758, 35.2074
522.000000, 72.739, 35.8664
530.000000, 72.717, 36.5950
538.000000, 72.693, 37.2795
545.000000, 72.671, 37.8843
552.000000, 72.657, 38.5002
560.000000, 72.645, 39.2171
570.000000, 72.626, 40.0659
580.000000, 72.603, 40.9374
590.000000, 72.582, 41.8192
600.000000, 72.558, 42.6819
608.000000, 72.540, 43.4095
615.000000, 72.525, 44.0504
622.000000, 72.509, 44.6525
630.000000, 72.487, 45.3621
640.000000, 72.469, 46.2890
650.000000, 72.455, 47.2131
660.000000, 72.439, 48.1576
670.000000, 72.418, 49.0851
680.000000, 72.399, 50.0017
690.000000, 72.378, 50.9594
700.000000, 72.354, 51.9147
710.000000, 72.332, 52.8972
720.000000, 72.314, 53.9126
730.000000, 72.305, 54.9527
740.000000, 72.303, 55.9858
750.000000, 72.302, 57.0094
762.000000, 72.304, 58.2807
775.000000, 72.312, 59.6301
788.000000, 72.322, 60.9892
800.000000, 72.339, 62.1346
812.000000, 72.359, 63.3473
825.000000, 72.386, 64.6950
838.000000, 72.408, 66.0148
850.000000, 72.429, 67.2210
862.000000, 72.461, 68.4196
875.000000, 72.500, 69.7501
885.000000, 72.531, 70.7589
900.000000, 72.585, 72.2630
912.000000, 72.638, 73.4294
925.000000, 72.701, 74.7057
938.000000, 72.762, 75.9694
950.000000, 72.821, 77.0945
962.000000, 72.892, 78.2079
975.000000, 72.978, 79.3691
988.000000, 73.064, 80.4661
1000.000000, 73.146, 81.4727
1015.000000, 73.262, 82.6839
1030.000000, 73.380, 83.7843
1044.000000, 73.487, 84.7882
1060.000000, 73.603, 85.8416
1075.000000, 73.707, 86.7708
1090.000000, 73.808, 87.6805
1106.000000, 73.912, 88.6460
1120.000000, 74.000, 89.4912
1138.000000, 74.120, 90.5892
1150.000000, 74.205, 91.2755
1172.000000, 74.360, 92.4058
1180.000000, 74.413, 92.8031
1206.000000, 74.585, 94.0346
1220.000000, 74.679, 94.6442
1241.000000, 74.814, 95.5174
1250.000000, 74.871, 95.8877
1265.000000, 74.959, 96.4784
1280.000000, 75.040, 97.0384
1315.000000, 75.220, 98.3247
1320.000000, 75.246, 98.5020
1340.000000, 75.343, 99.1862
1360.000000, 75.433, 99.8343
1380.000000, 75.518, 100.4769
1400.000000, 75.598, 101.1247
1430.000000, 75.708, 102.1720
1450.000000, 75.785, 102.8571
1475.000000, 75.876, 103.6887
1500.000000, 75.957, 104.5599
1525.000000, 76.037, 105.4503
1550.000000, 76.116, 106.3459
1575.000000, 76.195, 107.2408
1600.000000, 76.275, 108.1474
1625.000000, 76.357, 109.1269
1650.000000, 76.450, 110.1101
1675.000000, 76.550, 111.0430
1700.000000, 76.649, 111.9485
1725.000000, 76.747, 112.8381
1750.000000, 76.853, 113.7293
1775.000000, 76.964, 114.5809
1800.000000, 77.077, 115.4037
1825.000000, 77.191, 116.2139
1850.000000, 77.307, 116.9781
1875.000000, 77.427, 117.7179
1900.000000, 77.553, 118.4267
1925.000000, 77.681, 119.0908
1950.000000, 77.808, 119.7187
1975.000000, 77.937, 120.3045
2000.000000, 78.070, 120.8448
2030.000000, 78.235, 121.4322
2060.000000, 78.397, 121.9457
2090.000000, 78.558, 122.3803
2120.000000, 78.723, 122.7293
2140.000000, 78.832, 122.9187
2180.000000, 79.048, 123.2021
2200.000000, 79.156, 123.2795
2240.000000, 79.368, 123.2957
2270.000000, 79.518, 123.1937
2300.000000, 79.659, 123.0146
2330.000000, 79.792, 122.7546
2360.000000, 79.914, 122.4033
2400.000000, 80.061, 121.7868
2430.000000, 80.158, 121.2269
2470.000000, 80.263, 120.3792
2500.000000, 80.321, 119.6841
2540.000000, 80.365, 118.6800
2580.000000, 80.370, 117.6025
2620.000000, 80.337, 116.5115
2650.000000, 80.284, 115.7361
2690.000000, 80.178, 114.7750
2720.000000, 80.076, 114.1437
2760.000000, 79.911, 113.4871
2800.000000, 79.721, 113.0464
2850.000000, 79.471, 112.8433
2900.000000, 79.225, 112.9872
2950.000000, 79.000, 113.3220
3000.000000, 78.789, 113.7350
3040.000000, 78.628, 114.0845
3070.000000, 78.507, 114.3704
3110.000000, 78.345, 114.8165
3150.000000, 78.178, 115.3483
3200.000000, 77.969, 116.1276
3250.000000, 77.769, 117.0525
3300.000000, 77.588, 118.1005
3350.000000, 77.431, 119.1815
3400.000000, 77.299, 120.2279
3450.000000, 77.173, 121.1762
3500.000000, 77.034, 122.0464
3550.000000, 76.879, 122.8960
3600.000000, 76.712, 123.8006
3650.000000, 76.540, 124.8297
3700.000000, 76.369, 125.9593
3750.000000, 76.204, 127.1827
3820.000000, 75.987, 129.0649
3870.000000, 75.845, 130.5355
3950.000000, 75.644, 132.9668
4000.000000, 75.537, 134.5330
4060.000000, 75.424, 136.4319
4120.000000, 75.325, 138.3105
4180.000000, 75.243, 140.2066
4250.000000, 75.168, 142.4050
4310.000000, 75.116, 144.2537
4370.000000, 75.079, 146.0820
4440.000000, 75.051, 148.1746
4500.000000, 75.035, 149.9503
4550.000000, 75.024, 151.4356
4620.000000, 75.020, 153.5471
4680.000000, 75.034, 155.4143
4750.000000, 75.084, 157.6626
4820.000000, 75.181, 159.8910
4870.000000, 75.285, 161.4097
4940.000000, 75.475, 163.2864
5000.000000, 75.673, 164.5698
5080.000000, 75.959, 165.7685
5150.000000, 76.205, 166.3339
5220.000000, 76.429, 166.4916
5300.000000, 76.649, 166.2880
5380.000000, 76.824, 165.7996
5450.000000, 76.944, 165.2019
5520.000000, 77.041, 164.4836
5600.000000, 77.139, 163.5490
5700.000000, 77.266, 161.9468
5800.000000, 77.384, 159.2199
5900.000000, 77.337, 154.8884
6000.000000, 76.891, 149.7401
6080.000000, 76.205, 146.4282
6150.000000, 75.451, 144.8641
6220.000000, 74.652, 144.6258
6300.000000, 73.783, 145.7112
6400.000000, 72.830, 148.3998
6500.000000, 72.030, 151.8867
6600.000000, 71.356, 155.7909
6700.000000, 70.790, 159.9666
6800.000000, 70.318, 164.3394
6900.000000, 69.925, 168.7205
7000.000000, 69.594, 173.0169
7100.000000, 69.320, 177.3271
7200.000000, 69.105, -178.3179
7300.000000, 68.943, -173.9535
7400.000000, 68.809, -169.5322
7500.000000, 68.728, -165.0390
7620.000000, 68.706, -159.7667
7750.000000, 68.781, -154.2024
7880.000000, 68.947, -148.7786
8000.000000, 69.167, -143.9426
8120.000000, 69.465, -139.3019
8250.000000, 69.864, -134.4761
8380.000000, 70.350, -129.5599
8500.000000, 71.009, -124.4689
8620.000000, 72.051, -120.0260
8750.000000, 73.433, -118.3569
8850.000000, 74.488, -119.4046
9000.000000, 75.845, -123.9632
9120.000000, 76.688, -129.3320
9250.000000, 77.371, -136.4044
9380.000000, 77.785, -144.7643
9500.000000, 77.786, -153.4575
9620.000000, 77.313, -161.6215
9750.000000, 76.418, -168.2177
9880.000000, 75.373, -172.0455
10000.000000, 74.451, -173.5018
10150.000000, 73.474, -173.6254
10300.000000, 72.683, -172.8229
10440.000000, 72.057, -171.5649
10600.000000, 71.453, -169.4771
10750.000000, 71.042, -166.8213
10900.000000, 70.826, -163.9700
11060.000000, 70.792, -161.3297
11200.000000, 70.888, -159.4043
11380.000000, 71.291, -157.4716
11500.000000, 71.755, -157.4505
11720.000000, 72.716, -161.8918
11800.000000, 73.007, -165.1097
12060.000000, 73.171, 179.3228
12200.000000, 72.466, 169.8104
12410.000000, 70.351, 159.6668
12500.000000, 69.218, 157.8210
12650.000000, 67.313, 158.4100
12800.000000, 65.684, 162.9622
13150.000000, 63.610, 176.0801
13200.000000, 63.427, 177.6492
13400.000000, 62.815, -176.4373
13600.000000, 62.361, -170.9149
13800.000000, 62.055, -165.6339
14000.000000, 61.851, -160.5614
14300.000000, 61.755, -153.6088
14500.000000, 61.756, -149.2977
14750.000000, 61.847, -144.1557
15000.000000, 62.156, -138.7212
15250.000000, 62.756, -133.2839
15500.000000, 63.708, -129.0807
15750.000000, 64.942, -126.7302
16000.000000, 66.384, -126.8437
16250.000000, 67.867, -130.3481
16500.000000, 69.071, -137.5636
16750.000000, 69.566, -146.4127
17000.000000, 69.617, -150.4504
17250.000000, 70.991, -149.6187
17500.000000, 72.759, -160.1500
17750.000000, 72.761, -175.9160
18000.000000, 71.860, 174.4339
18250.000000, 71.351, 167.0106
18500.000000, 70.650, 155.8062
18750.000000, 69.116, 143.5992
19000.000000, 67.036, 132.2246
19250.000000, 64.781, 121.1271
19500.000000, 62.489, 110.8095
19750.000000, 60.309, 102.8234
20000.000000, 58.762, 98.1444
