* Measurement data measured by REW V5.31.3
* Source: Input device not selected, no input selected, L, volume: no control
* Format: 256k Log Swept Sine, 1 sweep at -11.0 dBFS with no timing reference
* Dated: May 23, 2025 9:02:20 PM
* REW Settings:
*  C-weighting compensation: Off
*  Target level: 75.0 dB
* Note: ; 
* Measurement: Bluelover (5ohm, Sancai) L
* Smoothing: 1/24 octave
* Frequency Step: 1/48 octave
* Start Frequency: 20.300 Hz
*
* Freq(Hz), SPL(dB), Phase(degrees)
20.299999, 90.246, 21.5860
20.600000, 90.257, 20.9284
20.900000, 90.269, 20.2007
21.200001, 90.281, 19.4776
21.400000, 90.289, 18.9992
21.799999, 90.306, 18.0485
22.000000, 90.313, 17.5772
22.400000, 90.321, 16.6493
22.700001, 90.322, 15.9708
23.000000, 90.319, 15.3085
23.299999, 90.315, 14.6595
23.600000, 90.310, 14.0187
24.000000, 90.306, 13.1693
24.299999, 90.304, 12.5338
24.700001, 90.301, 11.6930
25.000000, 90.297, 11.0739
25.400000, 90.288, 10.2719
25.799999, 90.274, 9.4991
26.200001, 90.257, 8.7479
26.500000, 90.243, 8.1910
26.900000, 90.227, 7.4479
27.200001, 90.216, 6.8883
27.600000, 90.204, 6.1443
28.000000, 90.192, 5.4146
28.500000, 90.173, 4.5403
29.000000, 90.150, 3.7109
29.500000, 90.121, 2.9066
30.000000, 90.091, 2.1037
30.400000, 90.068, 1.4596
30.700001, 90.051, 0.9818
31.100000, 90.028, 0.3628
31.500000, 90.006, -0.2273
32.000000, 89.978, -0.9286
32.500000, 89.946, -1.6121
33.000000, 89.910, -2.3013
33.500000, 89.871, -2.9997
34.000000, 89.833, -3.6922
34.500000, 89.796, -4.3626
35.000000, 89.760, -5.0059
35.500000, 89.722, -5.6286
36.000000, 89.681, -6.2400
36.500000, 89.639, -6.8465
37.000000, 89.598, -7.4480
37.500000, 89.558, -8.0382
38.200001, 89.500, -8.8315
38.700001, 89.456, -9.3749
39.500000, 89.383, -10.2323
40.000000, 89.337, -10.7714
40.599998, 89.284, -11.4096
41.200001, 89.230, -12.0189
41.799999, 89.174, -12.5961
42.500000, 89.105, -13.2437
43.099998, 89.045, -13.7860
43.700001, 88.987, -14.3187
44.400002, 88.921, -14.9314
45.000000, 88.862, -15.4487
45.500000, 88.810, -15.8701
46.200001, 88.736, -16.4423
46.799999, 88.675, -16.9210
47.500000, 88.606, -17.4698
48.200001, 88.534, -18.0004
48.700001, 88.481, -18.3655
49.400002, 88.407, -18.8647
50.000000, 88.344, -19.2870
50.799999, 88.255, -19.8260
51.500000, 88.175, -20.2661
52.200001, 88.099, -20.7050
53.000000, 88.012, -21.2095
53.799999, 87.918, -21.6491
54.500000, 87.836, -22.0011
55.200001, 87.757, -22.4134
56.000000, 87.666, -22.9336
57.000000, 87.556, -23.4383
58.000000, 87.448, -23.8506
59.000000, 87.331, -24.3252
60.000000, 87.229, -24.7985
60.799999, 87.148, -25.1193
61.500000, 87.069, -25.3195
62.200001, 86.989, -25.4914
63.000000, 86.903, -25.7758
64.000000, 86.784, -26.2246
65.000000, 86.656, -26.5883
66.000000, 86.539, -26.8831
67.000000, 86.426, -27.1622
68.000000, 86.306, -27.4906
69.000000, 86.177, -27.7961
70.000000, 86.063, -27.9748
71.000000, 85.958, -28.1411
72.000000, 85.847, -28.3069
73.000000, 85.739, -28.4539
74.000000, 85.632, -28.6261
75.000000, 85.523, -28.7992
76.199997, 85.390, -28.9228
77.500000, 85.238, -28.9799
78.800003, 85.090, -29.0805
80.000000, 84.957, -29.1915
81.199997, 84.813, -29.2235
82.500000, 84.707, -29.1676
83.800003, 84.585, -29.2326
85.000000, 84.414, -29.2109
86.199997, 84.260, -29.1673
87.500000, 84.145, -29.1086
88.500000, 84.058, -29.1290
90.000000, 83.896, -28.9650
91.199997, 83.770, -28.7295
92.500000, 83.629, -28.5046
93.800003, 83.496, -28.3397
95.000000, 83.377, -28.2180
96.199997, 83.259, -27.9890
97.500000, 83.159, -27.7079
98.800003, 83.047, -27.5040
100.000000, 82.906, -27.2352
101.500000, 82.745, -26.9896
103.000000, 82.613, -26.5583
104.400002, 82.501, -25.9755
106.000000, 82.384, -25.2314
107.500000, 82.278, -24.6781
109.000000, 82.155, -24.3046
110.599998, 81.970, -24.0944
112.000000, 81.788, -23.6043
113.800003, 81.644, -22.7757
115.000000, 81.586, -22.8149
117.199997, 81.505, -22.2351
118.000000, 81.482, -21.6256
120.599998, 81.296, -20.5868
122.000000, 81.176, -20.3971
124.099998, 81.021, -19.2689
125.000000, 80.965, -18.8142
126.500000, 80.899, -18.1150
128.000000, 80.874, -17.3079
131.500000, 80.669, -16.4979
132.000000, 80.634, -16.2975
134.000000, 80.548, -15.0275
136.000000, 80.461, -14.1854
138.000000, 80.367, -13.4584
140.000000, 80.238, -12.7528
143.000000, 80.152, -11.7137
145.000000, 80.002, -10.3436
147.500000, 79.943, -8.4071
150.000000, 79.890, -7.4346
152.500000, 79.920, -5.6597
155.000000, 80.091, -3.3409
157.500000, 80.064, -1.4111
160.000000, 79.864, -0.5639
162.500000, 79.779, -0.7827
165.000000, 79.615, -1.1141
167.500000, 79.731, -0.4088
170.000000, 80.182, 2.2721
172.500000, 80.472, 5.8087
175.000000, 80.529, 8.8478
177.500000, 80.544, 11.0615
180.000000, 80.342, 7.1804
182.500000, 80.364, 4.6490
185.000000, 80.495, 6.6768
187.500000, 80.466, 8.1018
190.000000, 80.413, 8.2445
192.500000, 80.390, 8.4266
195.000000, 80.404, 8.8665
197.500000, 80.443, 9.5250
200.000000, 80.502, 9.9290
203.000000, 80.555, 10.0548
206.000000, 80.583, 10.2441
209.000000, 80.663, 10.3547
212.000000, 80.654, 10.5394
214.000000, 80.578, 10.8231
218.000000, 80.608, 12.4988
220.000000, 80.693, 12.8976
224.000000, 80.674, 12.7782
227.000000, 80.617, 13.0643
230.000000, 80.625, 13.5989
233.000000, 80.654, 14.1040
236.000000, 80.692, 14.5381
240.000000, 80.750, 15.3264
243.000000, 80.724, 16.0047
247.000000, 80.716, 16.5969
250.000000, 80.759, 16.9196
254.000000, 80.756, 17.1475
258.000000, 80.726, 17.3993
262.000000, 80.759, 17.9642
265.000000, 80.783, 18.2963
269.000000, 80.791, 18.8837
272.000000, 80.795, 19.3444
276.000000, 80.847, 19.5963
280.000000, 80.871, 19.6107
285.000000, 80.788, 20.1657
290.000000, 80.848, 20.5047
295.000000, 80.899, 21.0293
300.000000, 80.906, 21.7562
304.000000, 80.932, 22.0957
307.000000, 80.949, 22.3415
311.000000, 80.948, 22.7125
315.000000, 80.948, 23.0615
320.000000, 80.956, 23.4395
325.000000, 80.956, 23.7572
330.000000, 80.956, 24.1897
335.000000, 80.957, 24.6880
340.000000, 80.955, 25.1207
345.000000, 80.957, 25.5588
350.000000, 80.956, 25.9900
355.000000, 80.960, 26.4427
360.000000, 80.966, 26.8688
365.000000, 80.975, 27.3574
370.000000, 80.985, 27.8734
375.000000, 80.987, 28.3768
382.000000, 80.988, 28.8400
387.000000, 80.980, 29.1044
395.000000, 80.980, 29.5112
400.000000, 80.979, 29.8902
406.000000, 80.968, 30.4107
412.000000, 80.955, 30.7942
418.000000, 80.939, 31.1844
425.000000, 80.922, 31.6797
431.000000, 80.915, 32.1455
437.000000, 80.903, 32.6135
444.000000, 80.888, 33.1738
450.000000, 80.872, 33.6534
455.000000, 80.853, 34.0041
462.000000, 80.832, 34.4986
468.000000, 80.826, 35.0133
475.000000, 80.818, 35.5870
482.000000, 80.800, 36.1210
487.000000, 80.786, 36.4471
494.000000, 80.762, 36.9721
500.000000, 80.740, 37.4694
508.000000, 80.726, 38.1181
515.000000, 80.715, 38.6772
522.000000, 80.700, 39.2496
530.000000, 80.680, 39.9068
538.000000, 80.661, 40.5492
545.000000, 80.644, 41.1143
552.000000, 80.625, 41.6864
560.000000, 80.603, 42.3464
570.000000, 80.577, 43.1799
580.000000, 80.551, 44.0186
590.000000, 80.524, 44.8591
600.000000, 80.499, 45.7073
608.000000, 80.481, 46.4021
615.000000, 80.466, 47.0098
622.000000, 80.450, 47.6160
630.000000, 80.431, 48.3131
640.000000, 80.407, 49.1963
650.000000, 80.385, 50.0830
660.000000, 80.365, 50.9742
670.000000, 80.346, 51.8807
680.000000, 80.327, 52.7979
690.000000, 80.310, 53.7235
700.000000, 80.294, 54.6528
710.000000, 80.279, 55.5912
720.000000, 80.266, 56.5385
730.000000, 80.255, 57.4929
740.000000, 80.245, 58.4468
750.000000, 80.237, 59.4022
762.000000, 80.230, 60.5612
775.000000, 80.227, 61.8451
788.000000, 80.228, 63.1270
800.000000, 80.231, 64.3077
812.000000, 80.239, 65.4917
825.000000, 80.251, 66.7874
838.000000, 80.269, 68.0811
850.000000, 80.289, 69.2747
862.000000, 80.313, 70.4685
875.000000, 80.345, 71.7590
885.000000, 80.372, 72.7496
900.000000, 80.418, 74.2129
912.000000, 80.461, 75.3675
925.000000, 80.513, 76.6066
938.000000, 80.569, 77.8254
950.000000, 80.626, 78.9309
962.000000, 80.687, 80.0144
975.000000, 80.756, 81.1654
988.000000, 80.830, 82.2790
1000.000000, 80.901, 83.2744
1015.000000, 80.994, 84.4867
1030.000000, 81.089, 85.6455
1044.000000, 81.180, 86.6811
1060.000000, 81.286, 87.7999
1075.000000, 81.385, 88.7974
1090.000000, 81.485, 89.7533
1106.000000, 81.591, 90.7245
1120.000000, 81.682, 91.5305
1138.000000, 81.797, 92.5146
1150.000000, 81.872, 93.1350
1172.000000, 82.005, 94.2103
1180.000000, 82.051, 94.5861
1206.000000, 82.194, 95.7587
1220.000000, 82.268, 96.3645
1241.000000, 82.372, 97.2420
1250.000000, 82.414, 97.6088
1265.000000, 82.481, 98.2088
1280.000000, 82.544, 98.7987
1315.000000, 82.682, 100.1641
1320.000000, 82.701, 100.3578
1340.000000, 82.772, 101.1282
1360.000000, 82.840, 101.9007
1380.000000, 82.905, 102.6813
1400.000000, 82.966, 103.4662
1430.000000, 83.055, 104.6511
1450.000000, 83.112, 105.4463
1475.000000, 83.182, 106.4527
1500.000000, 83.251, 107.4697
1525.000000, 83.321, 108.4941
1550.000000, 83.392, 109.5257
1575.000000, 83.464, 110.5635
1600.000000, 83.537, 111.6033
1625.000000, 83.612, 112.6422
1650.000000, 83.690, 113.6796
1675.000000, 83.771, 114.7162
1700.000000, 83.856, 115.7414
1725.000000, 83.943, 116.7576
1750.000000, 84.033, 117.7632
1775.000000, 84.127, 118.7530
1800.000000, 84.225, 119.7195
1825.000000, 84.327, 120.6670
1850.000000, 84.431, 121.5929
1875.000000, 84.540, 122.4873
1900.000000, 84.652, 123.3487
1925.000000, 84.767, 124.1804
1950.000000, 84.886, 124.9792
1975.000000, 85.007, 125.7382
2000.000000, 85.132, 126.4550
2030.000000, 85.284, 127.2589
2060.000000, 85.440, 127.9996
2090.000000, 85.598, 128.6703
2120.000000, 85.758, 129.2646
2140.000000, 85.866, 129.6171
2180.000000, 86.083, 130.2086
2200.000000, 86.191, 130.4458
2240.000000, 86.406, 130.7966
2270.000000, 86.565, 130.9411
2300.000000, 86.719, 130.9815
2330.000000, 86.867, 130.9198
2360.000000, 87.008, 130.7519
2400.000000, 87.179, 130.3616
2430.000000, 87.292, 129.9466
2470.000000, 87.418, 129.2423
2500.000000, 87.491, 128.6161
2540.000000, 87.553, 127.6757
2580.000000, 87.571, 126.6631
2620.000000, 87.539, 125.6487
2650.000000, 87.483, 124.9340
2690.000000, 87.368, 124.1141
2720.000000, 87.255, 123.6463
2760.000000, 87.081, 123.2739
2800.000000, 86.894, 123.2094
2850.000000, 86.669, 123.5159
2900.000000, 86.476, 124.1078
2950.000000, 86.318, 124.7985
3000.000000, 86.184, 125.4497
3040.000000, 86.083, 125.9133
3070.000000, 86.006, 126.2331
3110.000000, 85.898, 126.6457
3150.000000, 85.780, 127.0858
3200.000000, 85.625, 127.7364
3250.000000, 85.468, 128.5299
3300.000000, 85.322, 129.4584
3350.000000, 85.195, 130.4521
3400.000000, 85.085, 131.4015
3450.000000, 84.980, 132.2415
3500.000000, 84.864, 132.9959
3550.000000, 84.730, 133.7438
3600.000000, 84.578, 134.5660
3650.000000, 84.416, 135.5191
3700.000000, 84.252, 136.6121
3750.000000, 84.092, 137.8380
3820.000000, 83.882, 139.7466
3870.000000, 83.746, 141.2102
3950.000000, 83.556, 143.6683
4000.000000, 83.454, 145.2633
4060.000000, 83.350, 147.2048
4120.000000, 83.262, 149.1605
4180.000000, 83.191, 151.1218
4250.000000, 83.128, 153.3949
4310.000000, 83.087, 155.3200
4370.000000, 83.056, 157.2325
4440.000000, 83.033, 159.4532
4500.000000, 83.022, 161.3613
4550.000000, 83.020, 162.9760
4620.000000, 83.032, 165.3019
4680.000000, 83.064, 167.3697
4750.000000, 83.141, 169.8494
4820.000000, 83.273, 172.3055
4870.000000, 83.406, 173.9572
4940.000000, 83.637, 175.9928
5000.000000, 83.865, 177.4004
5080.000000, 84.185, 178.7530
5150.000000, 84.459, 179.4693
5220.000000, 84.713, 179.8241
5300.000000, 84.971, 179.8802
5380.000000, 85.191, 179.6617
5450.000000, 85.355, 179.3184
5520.000000, 85.500, 178.8738
5600.000000, 85.656, 178.2390
5700.000000, 85.861, 177.0834
5800.000000, 86.067, 175.0000
5900.000000, 86.150, 171.4746
6000.000000, 85.911, 167.0077
6080.000000, 85.427, 163.8910
6150.000000, 84.846, 162.1980
6220.000000, 84.200, 161.6794
6300.000000, 83.474, 162.3947
6400.000000, 82.680, 164.7331
6500.000000, 82.051, 168.0136
6600.000000, 81.581, 171.7360
6700.000000, 81.241, 175.5410
6800.000000, 80.992, 179.3821
6900.000000, 80.830, -176.7010
7000.000000, 80.759, -172.7932
7100.000000, 80.778, -168.9803
7200.000000, 80.887, -165.3616
7300.000000, 81.069, -162.0382
7400.000000, 81.314, -158.8580
7500.000000, 81.667, -155.8236
7620.000000, 82.250, -152.8156
7750.000000, 83.080, -150.6889
7880.000000, 84.129, -150.3938
8000.000000, 85.252, -152.7477
8120.000000, 86.358, -158.6786
8250.000000, 87.167, -169.5194
8380.000000, 87.135, 176.8739
8500.000000, 86.252, 165.2832
8620.000000, 84.859, 157.0128
8750.000000, 83.178, 151.4706
8850.000000, 81.849, 148.9745
9000.000000, 79.777, 147.7789
9120.000000, 78.054, 149.7614
9250.000000, 76.329, 155.8510
9380.000000, 75.139, 164.9981
9500.000000, 74.619, 172.9411
9620.000000, 74.384, 178.9744
9750.000000, 74.214, -175.9663
9880.000000, 74.049, -171.5478
10000.000000, 73.926, -167.6001
10150.000000, 73.851, -162.9669
10300.000000, 73.841, -158.9023
10440.000000, 73.842, -155.4649
10600.000000, 73.866, -151.4417
10750.000000, 73.988, -147.4145
10900.000000, 74.265, -143.5049
11060.000000, 74.738, -140.0601
11200.000000, 75.261, -137.9745
11380.000000, 76.079, -136.5377
11500.000000, 76.748, -136.8002
11720.000000, 77.996, -141.8106
11800.000000, 78.350, -145.1760
12060.000000, 78.668, -160.1675
12200.000000, 78.160, -169.1717
12410.000000, 76.398, 179.0997
12500.000000, 75.223, 176.3009
12650.000000, 72.947, 179.0579
12800.000000, 71.369, -170.9730
13150.000000, 70.490, -156.0091
13200.000000, 70.435, -154.4911
13400.000000, 70.295, -148.5665
13600.000000, 70.311, -142.9751
13800.000000, 70.479, -137.8477
14000.000000, 70.784, -133.2158
14300.000000, 71.506, -127.1074
14500.000000, 72.206, -123.7411
14750.000000, 73.353, -120.8734
15000.000000, 74.799, -120.1402
15250.000000, 76.558, -122.4707
15500.000000, 78.500, -129.9427
15750.000000, 80.006, -144.1971
16000.000000, 80.335, -162.5027
16250.000000, 79.359, -178.9366
16500.000000, 77.604, 170.4681
16750.000000, 75.634, 166.1405
17000.000000, 73.763, 168.9576
17250.000000, 73.295, -176.5276
17500.000000, 75.300, -169.0001
17750.000000, 76.315, -179.0764
18000.000000, 76.035, 172.4745
18250.000000, 76.038, 165.6308
18500.000000, 75.782, 154.3282
18750.000000, 74.620, 141.9596
19000.000000, 72.703, 131.5185
19250.000000, 70.310, 123.9598
19500.000000, 67.718, 118.7365
19750.000000, 65.214, 114.7356
