* Measurement data measured by REW V5.31.3
* Source: Input device not selected, no input selected, L, volume: no control
* Format: 256k Log Swept Sine, 1 sweep at -11.0 dBFS with no timing reference
* Dated: Jul 4, 2025 2:11:10 AM
* REW Settings:
*  C-weighting compensation: Off
*  Target level: 75.0 dB
* Note: ; 
* Measurement: Bluelover (5ohm Azla Foam) L
* Smoothing: 1/24 octave
* Frequency Step: 1/48 octave
* Start Frequency: 20.300 Hz
*
* Freq(Hz), SPL(dB), Phase(degrees)
20.299999, 90.746, 9.7694
20.600000, 90.746, 9.2039
20.900000, 90.743, 8.5759
21.200001, 90.739, 7.9497
21.400000, 90.736, 7.5344
21.799999, 90.729, 6.7091
22.000000, 90.725, 6.3010
22.400000, 90.714, 5.5021
22.700001, 90.704, 4.9227
23.000000, 90.693, 4.3602
23.299999, 90.681, 3.8098
23.600000, 90.669, 3.2643
24.000000, 90.653, 2.5356
24.299999, 90.639, 1.9869
24.700001, 90.619, 1.2602
25.000000, 90.602, 0.7270
25.400000, 90.578, 0.0391
25.799999, 90.554, -0.6238
26.200001, 90.531, -1.2720
26.500000, 90.514, -1.7548
26.900000, 90.491, -2.3968
27.200001, 90.472, -2.8744
27.600000, 90.446, -3.4994
28.000000, 90.418, -4.1061
28.500000, 90.384, -4.8407
29.000000, 90.350, -5.5599
29.500000, 90.314, -6.2701
30.000000, 90.275, -6.9652
30.400000, 90.242, -7.5033
30.700001, 90.217, -7.8953
31.100000, 90.183, -8.4060
31.500000, 90.151, -8.9107
32.000000, 90.109, -9.5436
32.500000, 90.066, -10.1771
33.000000, 90.019, -10.7950
33.500000, 89.971, -11.3814
34.000000, 89.926, -11.9379
34.500000, 89.883, -12.4828
35.000000, 89.840, -13.0321
35.500000, 89.796, -13.5847
36.000000, 89.747, -14.1276
36.500000, 89.697, -14.6514
37.000000, 89.647, -15.1584
37.500000, 89.596, -15.6550
38.200001, 89.525, -16.3362
38.700001, 89.473, -16.8117
39.500000, 89.391, -17.5573
40.000000, 89.339, -18.0123
40.599998, 89.276, -18.5391
41.200001, 89.213, -19.0451
41.799999, 89.150, -19.5411
42.500000, 89.075, -20.1129
43.099998, 89.010, -20.5888
43.700001, 88.944, -21.0483
44.400002, 88.866, -21.5646
45.000000, 88.796, -21.9791
45.500000, 88.738, -22.2972
46.200001, 88.657, -22.7185
46.799999, 88.590, -23.0929
47.500000, 88.512, -23.5699
48.200001, 88.432, -24.0649
48.700001, 88.376, -24.4009
49.400002, 88.299, -24.8232
50.000000, 88.233, -25.1508
50.799999, 88.142, -25.5788
51.500000, 88.059, -25.9669
52.200001, 87.976, -26.3626
53.000000, 87.882, -26.7877
53.799999, 87.787, -27.1500
54.500000, 87.708, -27.4587
55.200001, 87.628, -27.7971
56.000000, 87.531, -28.1365
57.000000, 87.422, -28.4179
58.000000, 87.316, -28.7914
59.000000, 87.186, -29.2380
60.000000, 87.061, -29.6056
60.799999, 86.968, -29.8742
61.500000, 86.884, -30.0921
62.200001, 86.799, -30.3051
63.000000, 86.700, -30.5577
64.000000, 86.580, -30.8413
65.000000, 86.465, -31.0635
66.000000, 86.348, -31.2619
67.000000, 86.227, -31.4687
68.000000, 86.106, -31.6613
69.000000, 85.993, -31.8136
70.000000, 85.883, -31.9831
71.000000, 85.764, -32.1217
72.000000, 85.644, -32.1671
73.000000, 85.526, -32.2244
74.000000, 85.406, -32.3309
75.000000, 85.290, -32.4291
76.199997, 85.154, -32.4782
77.500000, 85.006, -32.5153
78.800003, 84.856, -32.5594
80.000000, 84.719, -32.5248
81.199997, 84.587, -32.4539
82.500000, 84.445, -32.3454
83.800003, 84.299, -32.2198
85.000000, 84.163, -32.1313
86.199997, 84.034, -32.0452
87.500000, 83.908, -31.9158
88.500000, 83.816, -31.7835
90.000000, 83.663, -31.5257
91.199997, 83.531, -31.2905
92.500000, 83.394, -31.0774
93.800003, 83.264, -30.8041
95.000000, 83.150, -30.4751
96.199997, 83.036, -30.1633
97.500000, 82.915, -29.8538
98.800003, 82.798, -29.5126
100.000000, 82.689, -29.2029
101.500000, 82.550, -28.8045
103.000000, 82.412, -28.3638
104.400002, 82.287, -27.9314
106.000000, 82.158, -27.3623
107.500000, 82.041, -26.8550
109.000000, 81.924, -26.3326
110.599998, 81.800, -25.7305
112.000000, 81.698, -25.2031
113.800003, 81.570, -24.5584
115.000000, 81.487, -24.0946
117.199997, 81.346, -23.1593
118.000000, 81.296, -22.8207
120.599998, 81.142, -21.7377
122.000000, 81.059, -21.1542
124.099998, 80.936, -20.2532
125.000000, 80.888, -19.8565
126.500000, 80.810, -19.1805
128.000000, 80.736, -18.4966
131.500000, 80.589, -16.9433
132.000000, 80.569, -16.7288
134.000000, 80.489, -15.8755
136.000000, 80.413, -15.0119
138.000000, 80.343, -14.1090
140.000000, 80.277, -13.1715
143.000000, 80.191, -11.8417
145.000000, 80.145, -10.9776
147.500000, 80.092, -9.9290
150.000000, 80.047, -8.9296
152.500000, 80.006, -7.9025
155.000000, 79.971, -6.8496
157.500000, 79.943, -5.8248
160.000000, 79.913, -4.8461
162.500000, 79.888, -3.9014
165.000000, 79.869, -2.9828
167.500000, 79.853, -2.0754
170.000000, 79.845, -1.2120
172.500000, 79.840, -0.3485
175.000000, 79.837, 0.5082
177.500000, 79.839, 1.3354
180.000000, 79.842, 2.1248
182.500000, 79.848, 2.8691
185.000000, 79.856, 3.5878
187.500000, 79.864, 4.2955
190.000000, 79.873, 4.9724
192.500000, 79.883, 5.6224
195.000000, 79.897, 6.2763
197.500000, 79.915, 6.9326
200.000000, 79.930, 7.5780
203.000000, 79.948, 8.3173
206.000000, 79.968, 9.0077
209.000000, 79.990, 9.6660
212.000000, 80.013, 10.2907
214.000000, 80.027, 10.7031
218.000000, 80.055, 11.5245
220.000000, 80.069, 11.9142
224.000000, 80.099, 12.7100
227.000000, 80.123, 13.2707
230.000000, 80.144, 13.7898
233.000000, 80.163, 14.3007
236.000000, 80.182, 14.8176
240.000000, 80.209, 15.4852
243.000000, 80.229, 15.9536
247.000000, 80.251, 16.5701
250.000000, 80.269, 17.0388
254.000000, 80.296, 17.6056
258.000000, 80.322, 18.1872
262.000000, 80.348, 18.7650
265.000000, 80.369, 19.1777
269.000000, 80.395, 19.7207
272.000000, 80.413, 20.1245
276.000000, 80.438, 20.6523
280.000000, 80.463, 21.1668
285.000000, 80.490, 21.7845
290.000000, 80.517, 22.3910
295.000000, 80.548, 22.9388
300.000000, 80.579, 23.4867
304.000000, 80.603, 23.9100
307.000000, 80.621, 24.2372
311.000000, 80.642, 24.6756
315.000000, 80.665, 25.0714
320.000000, 80.695, 25.5462
325.000000, 80.722, 26.0282
330.000000, 80.747, 26.4650
335.000000, 80.775, 26.8686
340.000000, 80.800, 27.2593
345.000000, 80.820, 27.6381
350.000000, 80.839, 27.9988
355.000000, 80.853, 28.3336
360.000000, 80.864, 28.6665
365.000000, 80.870, 28.9968
370.000000, 80.872, 29.3312
375.000000, 80.873, 29.6566
382.000000, 80.873, 30.1256
387.000000, 80.872, 30.4571
395.000000, 80.864, 31.0234
400.000000, 80.856, 31.3928
406.000000, 80.847, 31.8331
412.000000, 80.837, 32.2687
418.000000, 80.826, 32.7095
425.000000, 80.814, 33.2297
431.000000, 80.802, 33.6712
437.000000, 80.792, 34.1509
444.000000, 80.781, 34.7263
450.000000, 80.769, 35.1945
455.000000, 80.757, 35.5789
462.000000, 80.739, 36.1227
468.000000, 80.725, 36.6058
475.000000, 80.712, 37.1791
482.000000, 80.699, 37.7431
487.000000, 80.690, 38.1512
494.000000, 80.677, 38.7253
500.000000, 80.663, 39.2113
508.000000, 80.643, 39.8570
515.000000, 80.627, 40.4436
522.000000, 80.608, 41.0356
530.000000, 80.584, 41.7100
538.000000, 80.567, 42.4043
545.000000, 80.554, 42.9904
552.000000, 80.540, 43.5630
560.000000, 80.522, 44.2451
570.000000, 80.498, 45.1077
580.000000, 80.475, 45.9818
590.000000, 80.456, 46.8489
600.000000, 80.435, 47.7199
608.000000, 80.419, 48.4282
615.000000, 80.406, 49.0508
622.000000, 80.393, 49.6760
630.000000, 80.376, 50.4034
640.000000, 80.357, 51.2939
650.000000, 80.341, 52.1879
660.000000, 80.325, 53.1080
670.000000, 80.309, 54.0497
680.000000, 80.291, 54.9932
690.000000, 80.276, 55.9180
700.000000, 80.266, 56.8493
710.000000, 80.259, 57.7912
720.000000, 80.251, 58.7605
730.000000, 80.242, 59.7246
740.000000, 80.237, 60.6860
750.000000, 80.233, 61.6514
762.000000, 80.231, 62.8130
775.000000, 80.230, 64.1020
788.000000, 80.231, 65.3664
800.000000, 80.238, 66.5412
812.000000, 80.249, 67.7200
825.000000, 80.263, 69.0078
838.000000, 80.281, 70.3061
850.000000, 80.305, 71.4865
862.000000, 80.330, 72.6560
875.000000, 80.362, 73.9419
885.000000, 80.391, 74.9195
900.000000, 80.436, 76.3626
912.000000, 80.476, 77.5096
925.000000, 80.527, 78.7385
938.000000, 80.582, 79.9374
950.000000, 80.633, 81.0267
962.000000, 80.688, 82.1021
975.000000, 80.754, 83.2474
988.000000, 80.826, 84.3548
1000.000000, 80.894, 85.3459
1015.000000, 80.978, 86.5674
1030.000000, 81.065, 87.7429
1044.000000, 81.147, 88.7890
1060.000000, 81.240, 89.9321
1075.000000, 81.329, 90.9695
1090.000000, 81.420, 91.9642
1106.000000, 81.516, 92.9742
1120.000000, 81.597, 93.8224
1138.000000, 81.699, 94.8786
1150.000000, 81.767, 95.5645
1172.000000, 81.888, 96.7675
1180.000000, 81.931, 97.1877
1206.000000, 82.064, 98.5095
1220.000000, 82.132, 99.2078
1241.000000, 82.231, 100.2414
1250.000000, 82.271, 100.6795
1265.000000, 82.337, 101.3944
1280.000000, 82.400, 102.0942
1315.000000, 82.538, 103.7061
1320.000000, 82.557, 103.9314
1340.000000, 82.634, 104.8285
1360.000000, 82.708, 105.7295
1380.000000, 82.778, 106.6270
1400.000000, 82.845, 107.5340
1430.000000, 82.947, 108.9014
1450.000000, 83.013, 109.7964
1475.000000, 83.093, 110.9304
1500.000000, 83.175, 112.0675
1525.000000, 83.259, 113.1964
1550.000000, 83.343, 114.3429
1575.000000, 83.427, 115.4800
1600.000000, 83.514, 116.6128
1625.000000, 83.603, 117.7482
1650.000000, 83.696, 118.8744
1675.000000, 83.792, 119.9908
1700.000000, 83.894, 121.0979
1725.000000, 83.997, 122.1977
1750.000000, 84.102, 123.2724
1775.000000, 84.211, 124.3246
1800.000000, 84.325, 125.3418
1825.000000, 84.441, 126.3308
1850.000000, 84.561, 127.2927
1875.000000, 84.686, 128.2268
1900.000000, 84.815, 129.1248
1925.000000, 84.945, 129.9874
1950.000000, 85.078, 130.8170
1975.000000, 85.213, 131.6069
2000.000000, 85.353, 132.3513
2030.000000, 85.522, 133.1807
2060.000000, 85.695, 133.9455
2090.000000, 85.872, 134.6412
2120.000000, 86.050, 135.2543
2140.000000, 86.170, 135.6153
2180.000000, 86.409, 136.2007
2200.000000, 86.529, 136.4288
2240.000000, 86.766, 136.7649
2270.000000, 86.940, 136.8988
2300.000000, 87.110, 136.9267
2330.000000, 87.273, 136.8459
2360.000000, 87.429, 136.6543
2400.000000, 87.619, 136.2316
2430.000000, 87.747, 135.7861
2470.000000, 87.892, 135.0376
2500.000000, 87.980, 134.3838
2540.000000, 88.062, 133.3948
2580.000000, 88.099, 132.3253
2620.000000, 88.090, 131.2404
2650.000000, 88.050, 130.4613
2690.000000, 87.955, 129.5455
2720.000000, 87.857, 128.9919
2760.000000, 87.699, 128.4781
2800.000000, 87.526, 128.2615
2850.000000, 87.315, 128.3814
2900.000000, 87.135, 128.8033
2950.000000, 86.994, 129.3128
3000.000000, 86.880, 129.7498
3040.000000, 86.798, 129.9814
3070.000000, 86.737, 130.0798
3110.000000, 86.646, 130.1180
3150.000000, 86.536, 130.0629
3200.000000, 86.363, 129.9202
3250.000000, 86.138, 129.8110
3300.000000, 85.854, 129.8948
3350.000000, 85.519, 130.4018
3400.000000, 85.164, 131.5120
3450.000000, 84.833, 133.2194
3500.000000, 84.562, 135.3454
3550.000000, 84.359, 137.6407
3600.000000, 84.212, 139.9307
3650.000000, 84.107, 142.1388
3700.000000, 84.030, 144.2363
3750.000000, 83.970, 146.2360
3820.000000, 83.907, 148.9223
3870.000000, 83.877, 150.7934
3950.000000, 83.850, 153.7512
4000.000000, 83.848, 155.5524
4060.000000, 83.859, 157.6589
4120.000000, 83.887, 159.7179
4180.000000, 83.931, 161.7202
4250.000000, 84.000, 163.9782
4310.000000, 84.074, 165.8229
4370.000000, 84.159, 167.5813
4440.000000, 84.271, 169.5344
4500.000000, 84.375, 171.1167
4550.000000, 84.466, 172.3853
4620.000000, 84.603, 174.1181
4680.000000, 84.732, 175.5858
4750.000000, 84.904, 177.2747
4820.000000, 85.116, 178.8746
4870.000000, 85.294, 179.8936
4940.000000, 85.578, -178.9797
5000.000000, 85.842, -178.3589
5080.000000, 86.199, -178.0853
5150.000000, 86.488, -178.3626
5220.000000, 86.741, -179.0485
5300.000000, 86.973, 179.8071
5380.000000, 87.144, 178.4135
5450.000000, 87.250, 177.0678
5520.000000, 87.320, 175.6133
5600.000000, 87.366, 173.7921
5700.000000, 87.366, 171.1006
5800.000000, 87.237, 167.7323
5900.000000, 86.861, 164.0234
6000.000000, 86.188, 161.1317
6080.000000, 85.507, 160.2251
6150.000000, 84.902, 160.5847
6220.000000, 84.352, 161.7960
6300.000000, 83.826, 163.8515
6400.000000, 83.328, 166.9635
6500.000000, 82.984, 170.2351
6600.000000, 82.770, 173.4221
6700.000000, 82.665, 176.3150
6800.000000, 82.628, 178.8153
6900.000000, 82.643, -178.9758
7000.000000, 82.712, -177.1400
7100.000000, 82.830, -175.7911
7200.000000, 82.984, -175.0370
7300.000000, 83.145, -174.9782
7400.000000, 83.278, -175.5408
7500.000000, 83.380, -176.7255
7620.000000, 83.409, -179.0757
7750.000000, 83.256, 177.6081
7880.000000, 82.874, 174.0591
8000.000000, 82.318, 171.0815
8120.000000, 81.592, 168.7856
8250.000000, 80.654, 167.4133
8380.000000, 79.610, 167.7008
8500.000000, 78.688, 169.9346
8620.000000, 78.018, 173.0987
8750.000000, 77.490, 175.5341
8850.000000, 77.051, 176.6455
9000.000000, 76.152, 178.3937
9120.000000, 75.239, -178.4312
9250.000000, 74.311, -171.7565
9380.000000, 73.853, -162.5133
9500.000000, 73.946, -154.8323
9620.000000, 74.261, -149.3715
9750.000000, 74.619, -145.2819
9880.000000, 74.937, -141.9784
10000.000000, 75.243, -139.1689
10150.000000, 75.685, -136.1680
10300.000000, 76.181, -134.0334
10440.000000, 76.654, -132.8239
10600.000000, 77.200, -132.0865
10750.000000, 77.758, -131.9427
10900.000000, 78.377, -132.7364
11060.000000, 79.035, -135.1386
11200.000000, 79.513, -138.5130
11380.000000, 79.970, -144.0293
11500.000000, 80.167, -148.5556
11720.000000, 80.118, -157.9975
11800.000000, 79.964, -161.4064
12060.000000, 79.156, -171.5274
12200.000000, 78.611, -176.8815
12410.000000, 77.418, 173.7873
12500.000000, 76.569, 170.0495
12650.000000, 74.636, 167.6126
12800.000000, 72.612, 172.7608
13150.000000, 71.140, -167.7015
13200.000000, 71.160, -166.3652
13400.000000, 71.213, -162.8668
13600.000000, 71.224, -160.6642
13800.000000, 71.239, -159.2046
14000.000000, 71.265, -158.5742
14300.000000, 71.261, -159.1601
14500.000000, 71.173, -160.4214
14750.000000, 70.904, -162.4789
15000.000000, 70.463, -164.0511
15250.000000, 69.987, -164.3964
15500.000000, 69.622, -164.1027
15750.000000, 69.344, -163.6409
16000.000000, 69.132, -163.0241
16250.000000, 68.972, -162.3227
16500.000000, 68.844, -161.4711
16750.000000, 68.692, -160.1165
17000.000000, 68.595, -155.8836
17250.000000, 69.763, -145.5037
17500.000000, 72.457, -144.5276
17750.000000, 73.834, -158.2626
18000.000000, 73.787, -171.2778
18250.000000, 73.795, 177.9721
18500.000000, 73.593, 163.1248
18750.000000, 72.310, 146.8669
19000.000000, 70.120, 133.1292
19250.000000, 67.471, 121.9684
19500.000000, 64.526, 112.0591
19750.000000, 61.340, 103.2219
