* Measurement data measured by REW V5.31.3
* Source: Input device not selected, no input selected, L, volume: no control
* Format: 256k Log Swept Sine, 1 sweep at -12.0 dBFS with no timing reference
* Dated: Dec 26, 2024 4:13:57 AM
* REW Settings:
*  C-weighting compensation: Off
*  Target level: 75.0 dB
* Note: ; 
* Measurement: Bluelover (Sancai M) L
* Smoothing: 1/24 octave
* Frequency Step: 1/48 octave
* Start Frequency: 20.300 Hz
*
* Freq(Hz), SPL(dB), Phase(degrees)
20.299999, 86.082, 9.7603
20.600000, 86.044, 9.1194
20.900000, 86.001, 8.3900
21.200001, 85.973, 7.6584
21.400000, 85.968, 7.1701
21.799999, 85.994, 6.1704
22.000000, 86.017, 5.6544
22.400000, 86.059, 4.6166
22.700001, 86.069, 3.8851
23.000000, 86.052, 3.2508
23.299999, 86.010, 2.7468
23.600000, 85.956, 2.3660
24.000000, 85.892, 1.9565
24.299999, 85.863, 1.6220
24.700001, 85.852, 1.0286
25.000000, 85.856, 0.4696
25.400000, 85.862, -0.3316
25.799999, 85.861, -1.0574
26.200001, 85.857, -1.6480
26.500000, 85.855, -2.0482
26.900000, 85.853, -2.6462
27.200001, 85.842, -3.1968
27.600000, 85.803, -4.0401
28.000000, 85.730, -4.8575
28.500000, 85.620, -5.5667
29.000000, 85.540, -5.8549
29.500000, 85.519, -6.0175
30.000000, 85.534, -6.4359
30.400000, 85.539, -7.0288
30.700001, 85.529, -7.5634
31.100000, 85.500, -8.2812
31.500000, 85.461, -8.8975
32.000000, 85.412, -9.4748
32.500000, 85.360, -9.9075
33.000000, 85.299, -10.3176
33.500000, 85.234, -10.7989
34.000000, 85.184, -11.3986
34.500000, 85.163, -12.0994
35.000000, 85.164, -12.8051
35.500000, 85.162, -13.3838
36.000000, 85.137, -13.7682
36.500000, 85.081, -14.0156
37.000000, 85.005, -14.2654
37.500000, 84.930, -14.6355
38.200001, 84.864, -15.3977
38.700001, 84.848, -16.0456
39.500000, 84.813, -17.0143
40.000000, 84.753, -17.4517
40.599998, 84.658, -17.8250
41.200001, 84.575, -18.2405
41.799999, 84.515, -18.8310
42.500000, 84.450, -19.5143
43.099998, 84.390, -19.8580
43.700001, 84.331, -20.0612
44.400002, 84.253, -20.4291
45.000000, 84.175, -20.9252
45.500000, 84.116, -21.3963
46.200001, 84.060, -22.0184
46.799999, 84.031, -22.4320
47.500000, 84.002, -22.7794
48.200001, 83.958, -23.1384
48.700001, 83.904, -23.4509
49.400002, 83.807, -23.8845
50.000000, 83.737, -24.2304
50.799999, 83.681, -24.8150
51.500000, 83.622, -25.4035
52.200001, 83.535, -25.7760
53.000000, 83.439, -25.8783
53.799999, 83.371, -26.0390
54.500000, 83.312, -26.4256
55.200001, 83.246, -26.9176
56.000000, 83.178, -27.4049
57.000000, 83.099, -27.7766
58.000000, 82.987, -27.8744
59.000000, 82.858, -27.9577
60.000000, 82.758, -28.2463
60.799999, 82.709, -28.5804
61.500000, 82.661, -28.9336
62.200001, 82.577, -29.2528
63.000000, 82.454, -29.4378
64.000000, 82.336, -29.6221
65.000000, 82.252, -30.0268
66.000000, 82.155, -30.3262
67.000000, 82.047, -30.4169
68.000000, 81.939, -30.4946
69.000000, 81.853, -30.6339
70.000000, 81.771, -30.8556
71.000000, 81.659, -31.0421
72.000000, 81.549, -31.2000
73.000000, 81.454, -31.3167
74.000000, 81.364, -31.3335
75.000000, 81.273, -31.4793
76.199997, 81.163, -31.6309
77.500000, 81.039, -31.5623
78.800003, 80.883, -31.6089
80.000000, 80.766, -31.7844
81.199997, 80.646, -31.7722
82.500000, 80.505, -31.7125
83.800003, 80.379, -31.7414
85.000000, 80.269, -31.7228
86.199997, 80.155, -31.7454
87.500000, 80.043, -31.6084
88.500000, 79.953, -31.3562
90.000000, 79.814, -31.0334
91.199997, 79.711, -31.0007
92.500000, 79.603, -30.8572
93.800003, 79.487, -30.5288
95.000000, 79.374, -30.2736
96.199997, 79.272, -30.1299
97.500000, 79.162, -29.9418
98.800003, 79.039, -29.6409
100.000000, 78.942, -29.3233
101.500000, 78.838, -28.9669
103.000000, 78.719, -28.6073
104.400002, 78.617, -28.3272
106.000000, 78.513, -27.9145
107.500000, 78.408, -27.4806
109.000000, 78.309, -27.0546
110.599998, 78.208, -26.5795
112.000000, 78.116, -26.1416
113.800003, 78.002, -25.6202
115.000000, 77.929, -25.3708
117.199997, 77.807, -24.7007
118.000000, 77.767, -24.3845
120.599998, 77.643, -23.4260
122.000000, 77.578, -22.9742
124.099998, 77.471, -22.2195
125.000000, 77.426, -21.8898
126.500000, 77.359, -21.3224
128.000000, 77.301, -20.7690
131.500000, 77.173, -19.6089
132.000000, 77.155, -19.4425
134.000000, 77.083, -18.8225
136.000000, 77.019, -18.0879
138.000000, 76.965, -17.3345
140.000000, 76.914, -16.5918
143.000000, 76.856, -15.5944
145.000000, 76.827, -15.0143
147.500000, 76.788, -14.1659
150.000000, 76.740, -13.3423
152.500000, 76.712, -12.5950
155.000000, 76.699, -11.7723
157.500000, 76.673, -11.0139
160.000000, 76.649, -10.2666
162.500000, 76.635, -9.5858
165.000000, 76.621, -8.8955
167.500000, 76.612, -8.2186
170.000000, 76.605, -7.6275
172.500000, 76.598, -7.0437
175.000000, 76.604, -6.4338
177.500000, 76.613, -5.8603
180.000000, 76.614, -5.3117
182.500000, 76.617, -4.8243
185.000000, 76.623, -4.3496
187.500000, 76.630, -3.8795
190.000000, 76.640, -3.4189
192.500000, 76.655, -2.9682
195.000000, 76.671, -2.5284
197.500000, 76.685, -2.1062
200.000000, 76.700, -1.7543
203.000000, 76.717, -1.3516
206.000000, 76.730, -0.9364
209.000000, 76.747, -0.5523
212.000000, 76.768, -0.1952
214.000000, 76.781, 0.0277
218.000000, 76.805, 0.4682
220.000000, 76.815, 0.6800
224.000000, 76.833, 1.0808
227.000000, 76.851, 1.3614
230.000000, 76.865, 1.6317
233.000000, 76.875, 1.8970
236.000000, 76.886, 2.1398
240.000000, 76.901, 2.4229
243.000000, 76.916, 2.6319
247.000000, 76.936, 2.8920
250.000000, 76.949, 3.0813
254.000000, 76.964, 3.3137
258.000000, 76.982, 3.4878
262.000000, 77.000, 3.6347
265.000000, 77.011, 3.7587
269.000000, 77.028, 3.9308
272.000000, 77.040, 4.0570
276.000000, 77.051, 4.2325
280.000000, 77.061, 4.3948
285.000000, 77.071, 4.5542
290.000000, 77.073, 4.7194
295.000000, 77.074, 4.8726
300.000000, 77.074, 5.0116
304.000000, 77.071, 5.1141
307.000000, 77.066, 5.1962
311.000000, 77.058, 5.3319
315.000000, 77.050, 5.4611
320.000000, 77.036, 5.6141
325.000000, 77.024, 5.7612
330.000000, 77.011, 5.9136
335.000000, 76.999, 6.0590
340.000000, 76.989, 6.1882
345.000000, 76.977, 6.3229
350.000000, 76.964, 6.4618
355.000000, 76.952, 6.5923
360.000000, 76.936, 6.7502
365.000000, 76.919, 6.9468
370.000000, 76.902, 7.1415
375.000000, 76.887, 7.3130
382.000000, 76.866, 7.5318
387.000000, 76.848, 7.6847
395.000000, 76.817, 7.9329
400.000000, 76.798, 8.0864
406.000000, 76.774, 8.3149
412.000000, 76.748, 8.5136
418.000000, 76.726, 8.6547
425.000000, 76.702, 8.7957
431.000000, 76.679, 8.8991
437.000000, 76.655, 9.0374
444.000000, 76.626, 9.2084
450.000000, 76.598, 9.3545
455.000000, 76.573, 9.4728
462.000000, 76.533, 9.6343
468.000000, 76.495, 9.7711
475.000000, 76.453, 9.9532
482.000000, 76.411, 10.1685
487.000000, 76.376, 10.3490
494.000000, 76.324, 10.6055
500.000000, 76.281, 10.8050
508.000000, 76.226, 11.0701
515.000000, 76.180, 11.3206
522.000000, 76.136, 11.5754
530.000000, 76.086, 11.8605
538.000000, 76.035, 12.1698
545.000000, 75.988, 12.4776
552.000000, 75.939, 12.8025
560.000000, 75.885, 13.1750
570.000000, 75.817, 13.6300
580.000000, 75.745, 14.0930
590.000000, 75.677, 14.6015
600.000000, 75.608, 15.1186
608.000000, 75.555, 15.5263
615.000000, 75.513, 15.8929
622.000000, 75.472, 16.2749
630.000000, 75.424, 16.7175
640.000000, 75.364, 17.2778
650.000000, 75.301, 17.8603
660.000000, 75.239, 18.4565
670.000000, 75.181, 19.0528
680.000000, 75.128, 19.6553
690.000000, 75.079, 20.2474
700.000000, 75.030, 20.8780
710.000000, 74.982, 21.5472
720.000000, 74.930, 22.2149
730.000000, 74.877, 22.8749
740.000000, 74.825, 23.5511
750.000000, 74.780, 24.2376
762.000000, 74.731, 25.0635
775.000000, 74.683, 25.9812
788.000000, 74.639, 26.9070
800.000000, 74.604, 27.7683
812.000000, 74.574, 28.6364
825.000000, 74.543, 29.5459
838.000000, 74.517, 30.4600
850.000000, 74.497, 31.3205
862.000000, 74.482, 32.1895
875.000000, 74.471, 33.1340
885.000000, 74.467, 33.8483
900.000000, 74.461, 34.8870
912.000000, 74.458, 35.7225
925.000000, 74.459, 36.6657
938.000000, 74.466, 37.5864
950.000000, 74.479, 38.4275
962.000000, 74.498, 39.2796
975.000000, 74.525, 40.1994
988.000000, 74.561, 41.0990
1000.000000, 74.597, 41.9043
1015.000000, 74.648, 42.9218
1030.000000, 74.706, 43.8697
1044.000000, 74.768, 44.6944
1060.000000, 74.849, 45.5762
1075.000000, 74.930, 46.3231
1090.000000, 75.010, 47.0218
1106.000000, 75.093, 47.7094
1120.000000, 75.164, 48.2484
1138.000000, 75.255, 48.8933
1150.000000, 75.314, 49.2908
1172.000000, 75.420, 49.9417
1180.000000, 75.459, 50.1582
1206.000000, 75.584, 50.7813
1220.000000, 75.645, 51.0754
1241.000000, 75.731, 51.5080
1250.000000, 75.764, 51.6900
1265.000000, 75.817, 51.9721
1280.000000, 75.865, 52.2263
1315.000000, 75.968, 52.8236
1320.000000, 75.981, 52.9088
1340.000000, 76.032, 53.2255
1360.000000, 76.082, 53.5512
1380.000000, 76.132, 53.8828
1400.000000, 76.179, 54.1930
1430.000000, 76.241, 54.6703
1450.000000, 76.275, 55.0382
1475.000000, 76.318, 55.5128
1500.000000, 76.361, 55.9908
1525.000000, 76.401, 56.4995
1550.000000, 76.445, 57.0150
1575.000000, 76.493, 57.5190
1600.000000, 76.542, 58.0422
1625.000000, 76.592, 58.5912
1650.000000, 76.646, 59.1263
1675.000000, 76.704, 59.6442
1700.000000, 76.762, 60.1728
1725.000000, 76.824, 60.7018
1750.000000, 76.894, 61.2175
1775.000000, 76.968, 61.7195
1800.000000, 77.049, 62.1857
1825.000000, 77.134, 62.6597
1850.000000, 77.226, 63.1208
1875.000000, 77.323, 63.5475
1900.000000, 77.422, 63.9641
1925.000000, 77.524, 64.3677
1950.000000, 77.628, 64.7410
1975.000000, 77.739, 65.0639
2000.000000, 77.857, 65.3526
2030.000000, 78.006, 65.6897
2060.000000, 78.160, 65.9715
2090.000000, 78.322, 66.1808
2120.000000, 78.492, 66.3142
2140.000000, 78.608, 66.3659
2180.000000, 78.845, 66.3642
2200.000000, 78.966, 66.3122
2240.000000, 79.216, 66.0988
2270.000000, 79.407, 65.8184
2300.000000, 79.599, 65.4449
2330.000000, 79.795, 64.9738
2360.000000, 79.994, 64.3916
2400.000000, 80.261, 63.4164
2430.000000, 80.460, 62.5295
2470.000000, 80.714, 61.1428
2500.000000, 80.893, 59.9476
2540.000000, 81.112, 58.1444
2580.000000, 81.306, 56.0912
2620.000000, 81.471, 53.8037
2650.000000, 81.570, 51.9616
2690.000000, 81.662, 49.3831
2720.000000, 81.697, 47.3862
2760.000000, 81.698, 44.6977
2800.000000, 81.647, 42.0389
2850.000000, 81.516, 38.8732
2900.000000, 81.327, 35.9569
2950.000000, 81.098, 33.3067
3000.000000, 80.836, 30.9354
3040.000000, 80.607, 29.2591
3070.000000, 80.426, 28.1249
3110.000000, 80.177, 26.7832
3150.000000, 79.921, 25.6503
3200.000000, 79.603, 24.5481
3250.000000, 79.300, 23.8041
3300.000000, 79.031, 23.3088
3350.000000, 78.806, 22.9038
3400.000000, 78.617, 22.4100
3450.000000, 78.441, 21.7326
3500.000000, 78.250, 20.9066
3550.000000, 78.034, 20.0604
3600.000000, 77.797, 19.3280
3650.000000, 77.549, 18.7718
3700.000000, 77.302, 18.3945
3750.000000, 77.063, 18.1744
3820.000000, 76.745, 18.1043
3870.000000, 76.531, 18.1933
3950.000000, 76.214, 18.5001
4000.000000, 76.036, 18.7692
4060.000000, 75.847, 19.1334
4120.000000, 75.687, 19.5548
4180.000000, 75.548, 19.9881
4250.000000, 75.409, 20.4716
4310.000000, 75.308, 20.8808
4370.000000, 75.222, 21.2678
4440.000000, 75.139, 21.6752
4500.000000, 75.081, 22.0120
4550.000000, 75.043, 22.2889
4620.000000, 75.006, 22.6703
4680.000000, 74.992, 23.0441
4750.000000, 75.003, 23.5380
4820.000000, 75.056, 24.0093
4870.000000, 75.123, 24.3143
4940.000000, 75.261, 24.5866
5000.000000, 75.415, 24.5520
5080.000000, 75.647, 24.0472
5150.000000, 75.858, 23.1778
5220.000000, 76.065, 21.9292
5300.000000, 76.289, 20.0829
5380.000000, 76.482, 17.8997
5450.000000, 76.629, 15.7855
5520.000000, 76.763, 13.4987
5600.000000, 76.912, 10.6751
5700.000000, 77.109, 6.6266
5800.000000, 77.295, 1.3652
5900.000000, 77.319, -5.5620
6000.000000, 76.948, -13.4401
6080.000000, 76.311, -19.1412
6150.000000, 75.577, -22.9117
6220.000000, 74.780, -25.3617
6300.000000, 73.895, -26.7490
6400.000000, 72.910, -26.9591
6500.000000, 72.092, -26.2500
6600.000000, 71.425, -25.1959
6700.000000, 70.863, -23.9760
6800.000000, 70.374, -22.5812
6900.000000, 69.959, -21.0400
7000.000000, 69.614, -19.3752
7100.000000, 69.332, -17.6658
7200.000000, 69.120, -16.0012
7300.000000, 68.962, -14.4216
7400.000000, 68.839, -12.7654
7500.000000, 68.779, -10.9744
7620.000000, 68.794, -8.9418
7750.000000, 68.897, -6.9100
7880.000000, 69.106, -5.0246
8000.000000, 69.393, -3.4846
8120.000000, 69.770, -2.1673
8250.000000, 70.276, -0.9770
8380.000000, 70.928, 0.3085
8500.000000, 71.851, 1.6844
8620.000000, 73.220, 1.3727
8750.000000, 74.922, -3.0276
8850.000000, 76.180, -9.4599
9000.000000, 77.679, -23.6917
9120.000000, 78.272, -38.1412
9250.000000, 78.071, -54.4109
9380.000000, 77.131, -68.0937
9500.000000, 76.002, -77.4666
9620.000000, 74.856, -84.3683
9750.000000, 73.678, -89.8613
9880.000000, 72.589, -93.6469
10000.000000, 71.708, -95.9346
10150.000000, 70.803, -97.8850
10300.000000, 70.097, -99.4258
10440.000000, 69.562, -100.7499
10600.000000, 69.048, -101.9961
10750.000000, 68.692, -102.8189
10900.000000, 68.502, -103.5333
11060.000000, 68.458, -104.5772
11200.000000, 68.526, -105.5746
11380.000000, 68.918, -107.1033
11500.000000, 69.389, -109.3548
11720.000000, 70.445, -117.4377
11800.000000, 70.821, -121.8609
12060.000000, 71.397, -141.8278
12200.000000, 70.904, -154.1324
12410.000000, 69.221, -168.4445
12500.000000, 68.398, -172.8694
12650.000000, 66.972, -178.4196
12800.000000, 65.548, 179.1226
13150.000000, 63.361, 178.9986
13200.000000, 63.154, 178.9901
13400.000000, 62.460, 179.0406
13600.000000, 61.963, 179.1222
13800.000000, 61.637, 178.9145
14000.000000, 61.476, 178.3334
14300.000000, 61.441, 176.7987
14500.000000, 61.507, 175.3406
14750.000000, 61.672, 173.4806
15000.000000, 62.036, 172.1330
15250.000000, 62.735, 170.4596
15500.000000, 63.724, 167.6270
15750.000000, 64.973, 163.2067
16000.000000, 66.457, 156.8136
16250.000000, 68.101, 147.6577
16500.000000, 69.623, 135.0822
16750.000000, 70.641, 120.5546
17000.000000, 71.598, 108.2880
17250.000000, 73.556, 94.1952
17500.000000, 74.639, 70.4347
17750.000000, 73.866, 47.2933
18000.000000, 72.649, 30.8285
18250.000000, 72.019, 15.5813
18500.000000, 71.299, -1.9901
18750.000000, 70.075, -20.1834
19000.000000, 68.406, -38.4991
19250.000000, 66.211, -56.6247
19500.000000, 63.416, -73.3820
19750.000000, 60.255, -87.5892
