* Measurement data measured by REW V5.31.3
* Source: Input device not selected, no input selected, L, volume: no control
* Format: 256k Log Swept Sine, 1 sweep at -12.0 dBFS with no timing reference
* Dated: Nov 6, 2024 8:29:48 PM
* REW Settings:
*  C-weighting compensation: Off
*  Target level: 75.0 dB
* Note: ; 
* Measurement: Bluelover (Stock Foam M) L
* Smoothing: 1/24 octave
* Frequency Step: 1/48 octave
* Start Frequency: 20.300 Hz
*
* Freq(Hz), SPL(dB), Phase(degrees)
20.299999, 84.215, 11.0673
20.600000, 84.216, 10.5258
20.900000, 84.215, 9.9441
21.200001, 84.212, 9.3635
21.400000, 84.211, 8.9781
21.799999, 84.208, 8.2133
22.000000, 84.206, 7.8362
22.400000, 84.201, 7.0976
22.700001, 84.195, 6.5587
23.000000, 84.187, 6.0308
23.299999, 84.178, 5.5101
23.600000, 84.167, 4.9927
24.000000, 84.150, 4.3046
24.299999, 84.137, 3.7907
24.700001, 84.118, 3.1132
25.000000, 84.104, 2.6143
25.400000, 84.086, 1.9638
25.799999, 84.068, 1.3296
26.200001, 84.050, 0.7090
26.500000, 84.035, 0.2513
26.900000, 84.014, -0.3493
27.200001, 83.997, -0.7922
27.600000, 83.975, -1.3725
28.000000, 83.952, -1.9408
28.500000, 83.923, -2.6335
29.000000, 83.892, -3.3051
29.500000, 83.860, -3.9561
30.000000, 83.826, -4.5927
30.400000, 83.800, -5.0976
30.700001, 83.779, -5.4755
31.100000, 83.751, -5.9767
31.500000, 83.722, -6.4698
32.000000, 83.685, -7.0663
32.500000, 83.646, -7.6382
33.000000, 83.608, -8.1931
33.500000, 83.569, -8.7404
34.000000, 83.529, -9.2810
34.500000, 83.487, -9.8079
35.000000, 83.445, -10.3172
35.500000, 83.404, -10.8130
36.000000, 83.363, -11.3027
36.500000, 83.321, -11.7884
37.000000, 83.277, -12.2669
37.500000, 83.233, -12.7360
38.200001, 83.170, -13.3793
38.700001, 83.124, -13.8273
39.500000, 83.048, -14.5112
40.000000, 83.001, -14.9190
40.599998, 82.946, -15.4011
41.200001, 82.889, -15.8799
41.799999, 82.831, -16.3482
42.500000, 82.763, -16.8792
43.099998, 82.706, -17.3302
43.700001, 82.647, -17.7746
44.400002, 82.577, -18.2641
45.000000, 82.517, -18.6549
45.500000, 82.468, -18.9717
46.200001, 82.399, -19.4169
46.799999, 82.339, -19.7974
47.500000, 82.267, -20.2300
48.200001, 82.195, -20.6459
48.700001, 82.143, -20.9302
49.400002, 82.071, -21.3117
50.000000, 82.010, -21.6315
50.799999, 81.927, -22.0571
51.500000, 81.851, -22.4198
52.200001, 81.776, -22.7669
53.000000, 81.692, -23.1505
53.799999, 81.609, -23.5156
54.500000, 81.535, -23.8121
55.200001, 81.462, -24.0957
56.000000, 81.379, -24.4219
57.000000, 81.273, -24.8227
58.000000, 81.167, -25.1904
59.000000, 81.060, -25.5506
60.000000, 80.950, -25.8897
60.799999, 80.864, -26.1245
61.500000, 80.791, -26.3086
62.200001, 80.718, -26.4750
63.000000, 80.634, -26.6567
64.000000, 80.529, -26.9145
65.000000, 80.420, -27.1885
66.000000, 80.313, -27.4157
67.000000, 80.208, -27.5889
68.000000, 80.103, -27.7458
69.000000, 79.997, -27.9098
70.000000, 79.893, -28.0699
71.000000, 79.789, -28.1917
72.000000, 79.686, -28.2747
73.000000, 79.582, -28.3774
74.000000, 79.476, -28.4867
75.000000, 79.372, -28.5605
76.199997, 79.249, -28.6221
77.500000, 79.116, -28.6641
78.800003, 78.984, -28.6703
80.000000, 78.865, -28.6383
81.199997, 78.745, -28.6005
82.500000, 78.615, -28.5629
83.800003, 78.487, -28.4949
85.000000, 78.373, -28.4032
86.199997, 78.261, -28.3034
87.500000, 78.138, -28.1674
88.500000, 78.045, -28.0477
90.000000, 77.904, -27.8480
91.199997, 77.794, -27.6649
92.500000, 77.678, -27.4478
93.800003, 77.565, -27.2156
95.000000, 77.461, -26.9830
96.199997, 77.359, -26.7276
97.500000, 77.249, -26.4394
98.800003, 77.140, -26.1512
100.000000, 77.041, -25.8767
101.500000, 76.922, -25.5003
103.000000, 76.806, -25.0863
104.400002, 76.698, -24.7014
106.000000, 76.582, -24.2481
107.500000, 76.475, -23.7899
109.000000, 76.368, -23.3080
110.599998, 76.261, -22.7947
112.000000, 76.172, -22.3268
113.800003, 76.057, -21.7257
115.000000, 75.982, -21.3136
117.199997, 75.855, -20.5280
118.000000, 75.811, -20.2504
120.599998, 75.672, -19.3123
122.000000, 75.601, -18.7643
124.099998, 75.500, -17.9596
125.000000, 75.459, -17.6128
126.500000, 75.392, -17.0232
128.000000, 75.328, -16.4359
131.500000, 75.191, -15.0837
132.000000, 75.173, -14.8894
134.000000, 75.105, -14.0970
136.000000, 75.043, -13.2967
138.000000, 74.987, -12.5114
140.000000, 74.935, -11.7293
143.000000, 74.861, -10.5798
145.000000, 74.820, -9.8164
147.500000, 74.776, -8.8696
150.000000, 74.737, -7.9351
152.500000, 74.703, -7.0128
155.000000, 74.676, -6.1186
157.500000, 74.654, -5.2649
160.000000, 74.637, -4.4282
162.500000, 74.626, -3.6047
165.000000, 74.620, -2.8000
167.500000, 74.615, -2.0157
170.000000, 74.613, -1.2658
172.500000, 74.616, -0.5433
175.000000, 74.619, 0.1531
177.500000, 74.625, 0.8423
180.000000, 74.635, 1.5132
182.500000, 74.646, 2.1306
185.000000, 74.658, 2.7211
187.500000, 74.673, 3.3035
190.000000, 74.687, 3.8679
192.500000, 74.703, 4.4091
195.000000, 74.720, 4.9289
197.500000, 74.739, 5.4350
200.000000, 74.758, 5.9278
203.000000, 74.779, 6.4834
206.000000, 74.803, 7.0135
209.000000, 74.827, 7.5147
212.000000, 74.850, 7.9923
214.000000, 74.865, 8.3053
218.000000, 74.896, 8.9015
220.000000, 74.911, 9.1845
224.000000, 74.940, 9.7398
227.000000, 74.962, 10.1410
230.000000, 74.981, 10.5206
233.000000, 74.999, 10.8813
236.000000, 75.019, 11.2289
240.000000, 75.045, 11.6636
243.000000, 75.063, 11.9727
247.000000, 75.084, 12.3786
250.000000, 75.100, 12.6800
254.000000, 75.121, 13.0598
258.000000, 75.137, 13.4121
262.000000, 75.153, 13.7369
265.000000, 75.165, 13.9810
269.000000, 75.179, 14.3008
272.000000, 75.187, 14.5350
276.000000, 75.197, 14.8329
280.000000, 75.207, 15.1310
285.000000, 75.216, 15.4907
290.000000, 75.222, 15.8300
295.000000, 75.227, 16.1642
300.000000, 75.231, 16.5041
304.000000, 75.233, 16.7573
307.000000, 75.233, 16.9450
311.000000, 75.231, 17.1942
315.000000, 75.228, 17.4408
320.000000, 75.226, 17.7416
325.000000, 75.222, 18.0257
330.000000, 75.214, 18.3129
335.000000, 75.204, 18.6070
340.000000, 75.194, 18.9016
345.000000, 75.184, 19.1908
350.000000, 75.172, 19.4869
355.000000, 75.159, 19.7739
360.000000, 75.144, 20.0651
365.000000, 75.128, 20.3593
370.000000, 75.111, 20.6449
375.000000, 75.096, 20.9360
382.000000, 75.070, 21.3383
387.000000, 75.051, 21.6296
395.000000, 75.018, 22.1111
400.000000, 74.997, 22.4092
406.000000, 74.972, 22.7680
412.000000, 74.946, 23.1157
418.000000, 74.918, 23.4640
425.000000, 74.886, 23.8936
431.000000, 74.856, 24.2694
437.000000, 74.826, 24.6341
444.000000, 74.791, 25.0548
450.000000, 74.760, 25.4162
455.000000, 74.734, 25.7142
462.000000, 74.696, 26.1314
468.000000, 74.661, 26.5031
475.000000, 74.622, 26.9373
482.000000, 74.581, 27.3768
487.000000, 74.550, 27.6975
494.000000, 74.506, 28.1568
500.000000, 74.468, 28.5589
508.000000, 74.416, 29.1082
515.000000, 74.372, 29.5854
522.000000, 74.327, 30.0771
530.000000, 74.275, 30.6414
538.000000, 74.223, 31.2092
545.000000, 74.176, 31.7237
552.000000, 74.130, 32.2487
560.000000, 74.077, 32.8488
570.000000, 74.012, 33.6209
580.000000, 73.949, 34.4107
590.000000, 73.886, 35.2130
600.000000, 73.822, 36.0254
608.000000, 73.772, 36.6827
615.000000, 73.727, 37.2732
622.000000, 73.684, 37.8761
630.000000, 73.635, 38.5622
640.000000, 73.576, 39.4348
650.000000, 73.518, 40.3274
660.000000, 73.462, 41.2257
670.000000, 73.407, 42.1306
680.000000, 73.353, 43.0512
690.000000, 73.301, 43.9866
700.000000, 73.249, 44.9378
710.000000, 73.199, 45.9017
720.000000, 73.152, 46.8806
730.000000, 73.108, 47.8679
740.000000, 73.065, 48.8597
750.000000, 73.025, 49.8546
762.000000, 72.981, 51.0650
775.000000, 72.936, 52.3985
788.000000, 72.894, 53.7349
800.000000, 72.859, 54.9802
812.000000, 72.830, 56.2455
825.000000, 72.804, 57.6189
838.000000, 72.783, 58.9920
850.000000, 72.768, 60.2780
862.000000, 72.758, 61.5651
875.000000, 72.752, 62.9524
885.000000, 72.752, 64.0185
900.000000, 72.759, 65.5993
912.000000, 72.771, 66.8520
925.000000, 72.790, 68.2064
938.000000, 72.812, 69.5411
950.000000, 72.837, 70.7538
962.000000, 72.867, 71.9544
975.000000, 72.906, 73.2338
988.000000, 72.950, 74.4930
1000.000000, 72.993, 75.6361
1015.000000, 73.051, 77.0011
1030.000000, 73.115, 78.3177
1044.000000, 73.176, 79.5137
1060.000000, 73.249, 80.8206
1075.000000, 73.321, 81.9948
1090.000000, 73.394, 83.1331
1106.000000, 73.471, 84.2910
1120.000000, 73.538, 85.2587
1138.000000, 73.622, 86.4496
1150.000000, 73.678, 87.2172
1172.000000, 73.778, 88.5788
1180.000000, 73.813, 89.0571
1206.000000, 73.920, 90.5508
1220.000000, 73.973, 91.3206
1241.000000, 74.048, 92.4495
1250.000000, 74.078, 92.9263
1265.000000, 74.127, 93.7148
1280.000000, 74.173, 94.5001
1315.000000, 74.272, 96.3028
1320.000000, 74.285, 96.5579
1340.000000, 74.337, 97.5906
1360.000000, 74.386, 98.6291
1380.000000, 74.433, 99.6606
1400.000000, 74.479, 100.6989
1430.000000, 74.549, 102.2438
1450.000000, 74.597, 103.2668
1475.000000, 74.653, 104.5298
1500.000000, 74.703, 105.8045
1525.000000, 74.753, 107.1218
1550.000000, 74.805, 108.4464
1575.000000, 74.860, 109.7743
1600.000000, 74.919, 111.1206
1625.000000, 74.981, 112.4794
1650.000000, 75.046, 113.8381
1675.000000, 75.116, 115.1831
1700.000000, 75.190, 116.5203
1725.000000, 75.268, 117.8532
1750.000000, 75.353, 119.1785
1775.000000, 75.441, 120.4932
1800.000000, 75.534, 121.7973
1825.000000, 75.632, 123.0838
1850.000000, 75.735, 124.3468
1875.000000, 75.842, 125.5893
1900.000000, 75.956, 126.8065
1925.000000, 76.073, 127.9966
1950.000000, 76.196, 129.1573
1975.000000, 76.324, 130.2954
2000.000000, 76.456, 131.4017
2030.000000, 76.622, 132.6647
2060.000000, 76.794, 133.8738
2090.000000, 76.974, 135.0247
2120.000000, 77.161, 136.1152
2140.000000, 77.289, 136.8044
2180.000000, 77.553, 138.0726
2200.000000, 77.689, 138.6523
2240.000000, 77.968, 139.6892
2270.000000, 78.183, 140.3482
2300.000000, 78.401, 140.9036
2330.000000, 78.622, 141.3444
2360.000000, 78.846, 141.6730
2400.000000, 79.143, 141.9217
2430.000000, 79.364, 141.9509
2470.000000, 79.651, 141.7702
2500.000000, 79.858, 141.4685
2540.000000, 80.119, 140.8346
2580.000000, 80.355, 139.9439
2620.000000, 80.559, 138.8167
2650.000000, 80.686, 137.8387
2690.000000, 80.814, 136.3959
2720.000000, 80.878, 135.2444
2760.000000, 80.918, 133.6754
2800.000000, 80.911, 132.1359
2850.000000, 80.844, 130.3379
2900.000000, 80.727, 128.7205
2950.000000, 80.572, 127.2824
3000.000000, 80.388, 125.9889
3040.000000, 80.220, 125.0413
3070.000000, 80.082, 124.3813
3110.000000, 79.879, 123.5717
3150.000000, 79.656, 122.8472
3200.000000, 79.345, 122.0679
3250.000000, 78.992, 121.4812
3300.000000, 78.594, 121.2047
3350.000000, 78.160, 121.3930
3400.000000, 77.715, 122.1449
3450.000000, 77.295, 123.4445
3500.000000, 76.926, 125.1599
3550.000000, 76.613, 127.1012
3600.000000, 76.351, 129.1080
3650.000000, 76.128, 131.1122
3700.000000, 75.934, 133.1057
3750.000000, 75.763, 135.0771
3820.000000, 75.555, 137.8089
3870.000000, 75.425, 139.7569
3950.000000, 75.253, 142.8621
4000.000000, 75.166, 144.7829
4060.000000, 75.079, 147.0634
4120.000000, 75.014, 149.3184
4180.000000, 74.968, 151.5350
4250.000000, 74.939, 154.0450
4310.000000, 74.933, 156.1413
4370.000000, 74.942, 158.1655
4440.000000, 74.969, 160.4392
4500.000000, 75.005, 162.3263
4550.000000, 75.043, 163.8669
4620.000000, 75.113, 165.9930
4680.000000, 75.195, 167.7937
4750.000000, 75.325, 169.8448
4820.000000, 75.502, 171.7581
4870.000000, 75.659, 172.9615
4940.000000, 75.912, 174.2939
5000.000000, 76.148, 175.0348
5080.000000, 76.462, 175.4160
5150.000000, 76.711, 175.2138
5220.000000, 76.920, 174.5764
5300.000000, 77.097, 173.4529
5380.000000, 77.206, 172.0509
5450.000000, 77.246, 170.6817
5520.000000, 77.244, 169.2197
5600.000000, 77.200, 167.4142
5700.000000, 77.080, 164.7634
5800.000000, 76.831, 161.3938
5900.000000, 76.318, 157.5746
6000.000000, 75.459, 154.5659
6080.000000, 74.589, 153.7266
6150.000000, 73.801, 154.3574
6220.000000, 73.064, 156.0298
6300.000000, 72.328, 158.7692
6400.000000, 71.576, 162.8911
6500.000000, 70.985, 167.3541
6600.000000, 70.518, 171.9061
6700.000000, 70.154, 176.4959
6800.000000, 69.886, 180.9917
6900.000000, 69.683, 185.2797
7000.000000, 69.532, 189.4997
7100.000000, 69.442, 193.6823
7200.000000, 69.421, 197.7239
7300.000000, 69.455, 201.5271
7400.000000, 69.526, 205.1722
7500.000000, 69.659, 208.7301
7620.000000, 69.911, 212.5704
7750.000000, 70.274, 216.0605
7880.000000, 70.713, 218.7547
8000.000000, 71.175, 220.3766
8120.000000, 71.655, 220.9699
8250.000000, 72.140, 220.3434
8380.000000, 72.513, 218.6259
8500.000000, 72.763, 216.5710
8620.000000, 72.995, 213.8004
8750.000000, 73.090, 209.0718
8850.000000, 72.895, 204.6720
9000.000000, 72.049, 198.8100
9120.000000, 70.976, 196.7519
9250.000000, 69.749, 198.7319
9380.000000, 68.928, 204.0988
9500.000000, 68.658, 208.8691
9620.000000, 68.581, 212.1525
9750.000000, 68.521, 214.8034
9880.000000, 68.460, 217.2600
10000.000000, 68.444, 219.6101
10150.000000, 68.519, 222.3860
10300.000000, 68.668, 224.6667
10440.000000, 68.833, 226.4472
10600.000000, 69.068, 228.5244
10750.000000, 69.415, 230.5235
10900.000000, 69.944, 232.0202
11060.000000, 70.687, 232.3008
11200.000000, 71.416, 231.0763
11380.000000, 72.427, 227.3438
11500.000000, 73.098, 222.9208
11720.000000, 73.884, 210.5000
11800.000000, 73.939, 205.1487
12060.000000, 73.264, 187.8588
12200.000000, 72.481, 179.3629
12410.000000, 70.715, 168.1662
12500.000000, 69.690, 165.0302
12650.000000, 67.876, 163.1685
12800.000000, 66.187, 164.0870
13150.000000, 63.429, 177.7223
13200.000000, 63.304, 179.7554
13400.000000, 63.138, 184.9353
13600.000000, 63.071, 187.2510
13800.000000, 63.002, 188.2432
14000.000000, 62.937, 188.1609
14300.000000, 62.787, 186.0185
14500.000000, 62.565, 183.3688
14750.000000, 62.043, 179.3912
15000.000000, 61.225, 175.9613
15250.000000, 60.254, 174.1340
15500.000000, 59.298, 173.7783
15750.000000, 58.409, 174.3995
16000.000000, 57.583, 175.8635
16250.000000, 56.846, 178.1645
16500.000000, 56.183, 181.2249
16750.000000, 55.533, 185.6533
17000.000000, 55.128, 194.8482
17250.000000, 56.488, 211.4981
17500.000000, 59.332, 214.8934
17750.000000, 60.738, 204.0819
18000.000000, 61.004, 196.0215
18250.000000, 61.656, 191.8772
18500.000000, 62.616, 183.7758
18750.000000, 62.956, 172.4386
19000.000000, 62.738, 161.5967
19250.000000, 62.234, 151.9448
19500.000000, 61.570, 143.3162
19750.000000, 60.882, 135.6125
20000.000000, 60.430, 129.7708
