* Measurement data measured by REW V5.31.3
* Source: Input device not selected, no input selected, L, volume: no control
* Format: 256k Log Swept Sine, 1 sweep at -12.0 dBFS with no timing reference
* Dated: Nov 4, 2024 11:23:07 PM
* REW Settings:
*  C-weighting compensation: Off
*  Target level: 75.0 dB
* Note: 
* Measurement: Bluelover (10ohm, M) S2 L
* Smoothing: 1/24 octave
* Frequency Step: 1/48 octave
* Start Frequency: 20.300 Hz
*
* Freq(Hz), SPL(dB), Phase(degrees)
20.299999, 77.630, 6.9762
20.600000, 77.630, 6.5089
20.900000, 77.626, 6.0149
21.200001, 77.622, 5.5279
21.400000, 77.620, 5.2046
21.799999, 77.619, 4.5524
22.000000, 77.619, 4.2216
22.400000, 77.616, 3.5538
22.700001, 77.611, 3.0542
23.000000, 77.604, 2.5625
23.299999, 77.596, 2.0819
23.600000, 77.588, 1.6118
24.000000, 77.580, 0.9943
24.299999, 77.575, 0.5328
24.700001, 77.571, -0.0835
25.000000, 77.566, -0.5439
25.400000, 77.558, -1.1485
25.799999, 77.547, -1.7369
26.200001, 77.533, -2.3095
26.500000, 77.523, -2.7319
26.900000, 77.508, -3.2894
27.200001, 77.497, -3.7035
27.600000, 77.483, -4.2468
28.000000, 77.467, -4.7738
28.500000, 77.443, -5.4018
29.000000, 77.414, -5.9951
29.500000, 77.381, -6.5664
30.000000, 77.348, -7.1391
30.400000, 77.324, -7.6124
30.700001, 77.308, -7.9778
31.100000, 77.285, -8.4709
31.500000, 77.262, -8.9554
32.000000, 77.229, -9.5246
32.500000, 77.193, -10.0466
33.000000, 77.156, -10.5420
33.500000, 77.120, -11.0418
34.000000, 77.085, -11.5612
34.500000, 77.050, -12.0919
35.000000, 77.014, -12.6139
35.500000, 76.976, -13.1139
36.000000, 76.937, -13.5940
36.500000, 76.897, -14.0680
37.000000, 76.857, -14.5481
37.500000, 76.817, -15.0376
38.200001, 76.764, -15.7315
38.700001, 76.727, -16.2256
39.500000, 76.664, -16.9806
40.000000, 76.622, -17.4023
40.599998, 76.573, -17.8488
41.200001, 76.529, -18.2619
41.799999, 76.484, -18.6726
42.500000, 76.421, -19.1358
43.099998, 76.360, -19.5060
43.700001, 76.302, -19.8882
44.400002, 76.235, -20.3995
45.000000, 76.176, -20.8672
45.500000, 76.126, -21.2415
46.200001, 76.064, -21.7376
46.799999, 76.014, -22.1607
47.500000, 75.952, -22.6316
48.200001, 75.882, -23.0299
48.700001, 75.831, -23.2857
49.400002, 75.758, -23.6714
50.000000, 75.693, -24.0524
50.799999, 75.605, -24.5637
51.500000, 75.535, -24.9311
52.200001, 75.471, -25.2245
53.000000, 75.394, -25.5689
53.799999, 75.308, -25.9788
54.500000, 75.233, -26.3404
55.200001, 75.162, -26.6496
56.000000, 75.081, -26.9528
57.000000, 74.967, -27.3681
58.000000, 74.858, -27.8363
59.000000, 74.780, -28.2375
60.000000, 74.693, -28.5996
60.799999, 74.595, -28.8647
61.500000, 74.509, -29.0774
62.200001, 74.433, -29.2986
63.000000, 74.351, -29.5462
64.000000, 74.244, -29.8341
65.000000, 74.139, -30.1647
66.000000, 74.029, -30.4061
67.000000, 73.914, -30.5412
68.000000, 73.800, -30.7709
69.000000, 73.695, -31.0128
70.000000, 73.599, -31.1399
71.000000, 73.490, -31.2775
72.000000, 73.370, -31.4512
73.000000, 73.264, -31.6164
74.000000, 73.163, -31.8208
75.000000, 73.055, -31.9791
76.199997, 72.934, -32.0384
77.500000, 72.800, -32.1150
78.800003, 72.669, -32.2514
80.000000, 72.548, -32.2962
81.199997, 72.414, -32.2893
82.500000, 72.279, -32.2889
83.800003, 72.155, -32.2118
85.000000, 72.037, -32.1730
86.199997, 71.919, -32.2430
87.500000, 71.783, -32.2365
88.500000, 71.680, -32.1098
90.000000, 71.538, -31.9849
91.199997, 71.424, -31.9211
92.500000, 71.300, -31.7788
93.800003, 71.176, -31.5930
95.000000, 71.073, -31.4075
96.199997, 70.967, -31.1894
97.500000, 70.839, -30.9627
98.800003, 70.719, -30.7949
100.000000, 70.619, -30.6080
101.500000, 70.490, -30.2931
103.000000, 70.366, -29.9300
104.400002, 70.254, -29.6175
106.000000, 70.131, -29.2526
107.500000, 70.016, -28.8369
109.000000, 69.900, -28.4471
110.599998, 69.781, -28.0513
112.000000, 69.678, -27.6633
113.800003, 69.542, -27.1191
115.000000, 69.454, -26.7935
117.199997, 69.300, -26.1387
118.000000, 69.244, -25.8717
120.599998, 69.086, -25.0876
122.000000, 69.010, -24.6315
124.099998, 68.885, -23.9075
125.000000, 68.832, -23.6184
126.500000, 68.748, -23.1341
128.000000, 68.669, -22.5783
131.500000, 68.494, -21.3751
132.000000, 68.471, -21.1957
134.000000, 68.381, -20.3941
136.000000, 68.294, -19.5970
138.000000, 68.202, -18.9398
140.000000, 68.114, -18.2373
143.000000, 68.004, -17.0757
145.000000, 67.929, -16.3648
147.500000, 67.845, -15.4813
150.000000, 67.778, -14.4910
152.500000, 67.708, -13.5177
155.000000, 67.643, -12.6483
157.500000, 67.591, -11.7905
160.000000, 67.548, -10.8895
162.500000, 67.490, -10.0676
165.000000, 67.428, -9.2698
167.500000, 67.395, -8.3957
170.000000, 67.374, -7.5418
172.500000, 67.338, -6.7252
175.000000, 67.295, -5.8681
177.500000, 67.274, -5.1208
180.000000, 67.265, -4.4120
182.500000, 67.244, -3.6301
185.000000, 67.230, -2.8437
187.500000, 67.220, -2.1155
190.000000, 67.211, -1.4776
192.500000, 67.200, -0.8056
195.000000, 67.189, -0.0715
197.500000, 67.182, 0.6026
200.000000, 67.179, 1.2537
203.000000, 67.182, 2.0269
206.000000, 67.176, 2.7071
209.000000, 67.160, 3.3989
212.000000, 67.149, 4.1822
214.000000, 67.153, 4.6668
218.000000, 67.173, 5.5131
220.000000, 67.176, 5.9340
224.000000, 67.185, 6.7561
227.000000, 67.197, 7.3411
230.000000, 67.203, 7.9006
233.000000, 67.206, 8.4483
236.000000, 67.218, 9.0283
240.000000, 67.242, 9.8076
243.000000, 67.245, 10.3170
247.000000, 67.241, 10.9427
250.000000, 67.250, 11.4265
254.000000, 67.265, 12.1041
258.000000, 67.274, 12.7727
262.000000, 67.301, 13.3784
265.000000, 67.321, 13.8417
269.000000, 67.331, 14.3850
272.000000, 67.333, 14.7774
276.000000, 67.338, 15.4246
280.000000, 67.342, 15.9800
285.000000, 67.351, 16.5893
290.000000, 67.370, 17.2959
295.000000, 67.384, 17.8780
300.000000, 67.396, 18.4994
304.000000, 67.406, 19.0758
307.000000, 67.412, 19.4630
311.000000, 67.421, 19.9066
315.000000, 67.432, 20.3680
320.000000, 67.439, 20.8648
325.000000, 67.438, 21.3850
330.000000, 67.448, 21.9875
335.000000, 67.461, 22.6221
340.000000, 67.472, 23.1782
345.000000, 67.482, 23.6384
350.000000, 67.489, 24.1435
355.000000, 67.493, 24.6904
360.000000, 67.500, 25.2198
365.000000, 67.504, 25.7078
370.000000, 67.506, 26.2167
375.000000, 67.505, 26.7553
382.000000, 67.505, 27.4347
387.000000, 67.506, 27.9185
395.000000, 67.518, 28.7354
400.000000, 67.523, 29.1918
406.000000, 67.524, 29.8105
412.000000, 67.527, 30.3916
418.000000, 67.524, 30.9185
425.000000, 67.515, 31.5127
431.000000, 67.512, 32.0928
437.000000, 67.517, 32.7237
444.000000, 67.520, 33.3926
450.000000, 67.522, 33.9408
455.000000, 67.525, 34.4002
462.000000, 67.521, 35.0953
468.000000, 67.518, 35.7074
475.000000, 67.516, 36.3546
482.000000, 67.511, 37.0150
487.000000, 67.512, 37.5085
494.000000, 67.515, 38.1722
500.000000, 67.514, 38.7489
508.000000, 67.509, 39.5251
515.000000, 67.504, 40.1730
522.000000, 67.507, 40.8412
530.000000, 67.513, 41.6382
538.000000, 67.517, 42.4035
545.000000, 67.520, 43.0565
552.000000, 67.530, 43.7213
560.000000, 67.538, 44.4809
570.000000, 67.549, 45.3621
580.000000, 67.561, 46.2604
590.000000, 67.575, 47.1263
600.000000, 67.577, 47.9660
608.000000, 67.582, 48.7013
615.000000, 67.587, 49.3473
622.000000, 67.590, 49.9604
630.000000, 67.593, 50.6600
640.000000, 67.600, 51.5371
650.000000, 67.618, 52.4091
660.000000, 67.629, 53.2840
670.000000, 67.634, 54.1303
680.000000, 67.638, 54.9995
690.000000, 67.642, 55.9375
700.000000, 67.642, 56.8740
710.000000, 67.644, 57.8161
720.000000, 67.645, 58.8074
730.000000, 67.651, 59.7879
740.000000, 67.666, 60.7081
750.000000, 67.679, 61.6393
762.000000, 67.693, 62.8090
775.000000, 67.712, 64.0894
788.000000, 67.732, 65.3827
800.000000, 67.760, 66.5341
812.000000, 67.794, 67.7306
825.000000, 67.840, 69.0444
838.000000, 67.887, 70.3452
850.000000, 67.931, 71.5445
862.000000, 67.982, 72.7235
875.000000, 68.040, 74.0457
885.000000, 68.085, 75.0522
900.000000, 68.161, 76.5066
912.000000, 68.235, 77.6083
925.000000, 68.323, 78.8302
938.000000, 68.409, 80.0529
950.000000, 68.489, 81.1223
962.000000, 68.578, 82.1717
975.000000, 68.681, 83.2615
988.000000, 68.785, 84.2396
1000.000000, 68.886, 85.1402
1015.000000, 69.024, 86.3096
1030.000000, 69.163, 87.3311
1044.000000, 69.291, 88.2230
1060.000000, 69.429, 89.1223
1075.000000, 69.551, 89.9287
1090.000000, 69.660, 90.7273
1106.000000, 69.764, 91.6288
1120.000000, 69.857, 92.4626
1138.000000, 69.990, 93.5353
1150.000000, 70.085, 94.2005
1172.000000, 70.264, 95.3178
1180.000000, 70.328, 95.7076
1206.000000, 70.537, 96.8617
1220.000000, 70.651, 97.4333
1241.000000, 70.813, 98.2366
1250.000000, 70.878, 98.5714
1265.000000, 70.985, 99.0868
1280.000000, 71.087, 99.5572
1315.000000, 71.313, 100.6646
1320.000000, 71.343, 100.8209
1340.000000, 71.461, 101.4361
1360.000000, 71.571, 102.0120
1380.000000, 71.678, 102.5837
1400.000000, 71.786, 103.1747
1430.000000, 71.940, 104.0319
1450.000000, 72.038, 104.5770
1475.000000, 72.152, 105.2182
1500.000000, 72.254, 105.9440
1525.000000, 72.359, 106.7190
1550.000000, 72.471, 107.4966
1575.000000, 72.588, 108.2443
1600.000000, 72.701, 108.9517
1625.000000, 72.810, 109.7112
1650.000000, 72.929, 110.4784
1675.000000, 73.049, 111.1733
1700.000000, 73.168, 111.8473
1725.000000, 73.286, 112.5266
1750.000000, 73.410, 113.1903
1775.000000, 73.539, 113.8316
1800.000000, 73.666, 114.4498
1825.000000, 73.796, 115.0230
1850.000000, 73.927, 115.5439
1875.000000, 74.062, 116.0551
1900.000000, 74.200, 116.5323
1925.000000, 74.342, 116.9590
1950.000000, 74.480, 117.3603
1975.000000, 74.617, 117.7066
2000.000000, 74.759, 117.9941
2030.000000, 74.938, 118.2612
2060.000000, 75.109, 118.4412
2090.000000, 75.277, 118.5438
2120.000000, 75.446, 118.5647
2140.000000, 75.557, 118.5216
2180.000000, 75.772, 118.3121
2200.000000, 75.877, 118.1469
2240.000000, 76.077, 117.6660
2270.000000, 76.215, 117.1836
2300.000000, 76.342, 116.6129
2330.000000, 76.453, 115.9564
2360.000000, 76.550, 115.2109
2400.000000, 76.653, 114.0586
2430.000000, 76.708, 113.1051
2470.000000, 76.745, 111.7412
2500.000000, 76.743, 110.6788
2540.000000, 76.696, 109.2171
2580.000000, 76.596, 107.7720
2620.000000, 76.445, 106.4337
2650.000000, 76.297, 105.5453
2690.000000, 76.057, 104.5653
2720.000000, 75.851, 104.0363
2760.000000, 75.548, 103.6621
2800.000000, 75.229, 103.6901
2850.000000, 74.846, 104.2878
2900.000000, 74.500, 105.3969
2950.000000, 74.215, 106.7789
3000.000000, 73.985, 108.2041
3040.000000, 73.832, 109.3098
3070.000000, 73.728, 110.1154
3110.000000, 73.596, 111.1858
3150.000000, 73.469, 112.2651
3200.000000, 73.321, 113.6152
3250.000000, 73.188, 115.0040
3300.000000, 73.076, 116.4305
3350.000000, 72.990, 117.7926
3400.000000, 72.925, 119.0260
3450.000000, 72.858, 120.1085
3500.000000, 72.775, 121.0819
3550.000000, 72.671, 121.9996
3600.000000, 72.553, 122.9458
3650.000000, 72.427, 124.0039
3700.000000, 72.300, 125.1575
3750.000000, 72.177, 126.3664
3820.000000, 72.015, 128.2058
3870.000000, 71.910, 129.6370
3950.000000, 71.761, 131.9742
4000.000000, 71.685, 133.4745
4060.000000, 71.608, 135.2755
4120.000000, 71.544, 137.0591
4180.000000, 71.493, 138.8426
4250.000000, 71.453, 140.9047
4310.000000, 71.428, 142.6370
4370.000000, 71.413, 144.3407
4440.000000, 71.412, 146.3031
4500.000000, 71.417, 147.9647
4550.000000, 71.423, 149.3423
4620.000000, 71.439, 151.3064
4680.000000, 71.465, 153.0592
4750.000000, 71.528, 155.1767
4820.000000, 71.633, 157.2698
4870.000000, 71.743, 158.7291
4940.000000, 71.944, 160.5736
5000.000000, 72.151, 161.8315
5080.000000, 72.451, 162.9749
5150.000000, 72.712, 163.4844
5220.000000, 72.953, 163.5879
5300.000000, 73.190, 163.3268
5380.000000, 73.384, 162.7996
5450.000000, 73.522, 162.1729
5520.000000, 73.638, 161.4235
5600.000000, 73.762, 160.4180
5700.000000, 73.929, 158.6674
5800.000000, 74.078, 155.6783
5900.000000, 74.034, 150.9963
6000.000000, 73.560, 145.6113
6080.000000, 72.848, 142.3109
6150.000000, 72.086, 140.8769
6220.000000, 71.293, 140.7834
6300.000000, 70.443, 141.9637
6400.000000, 69.517, 144.6674
6500.000000, 68.748, 148.1066
6600.000000, 68.102, 151.9382
6700.000000, 67.556, 156.0147
6800.000000, 67.105, 160.3302
6900.000000, 66.737, 164.6064
7000.000000, 66.429, 168.8122
7100.000000, 66.172, 173.0873
7200.000000, 65.968, 177.4506
7300.000000, 65.814, -178.2453
7400.000000, 65.699, -173.8812
7500.000000, 65.642, -169.4354
7620.000000, 65.646, -164.2726
7750.000000, 65.749, -158.8387
7880.000000, 65.936, -153.5521
8000.000000, 66.180, -148.8306
8120.000000, 66.500, -144.3089
8250.000000, 66.920, -139.5728
8380.000000, 67.427, -134.7930
8500.000000, 68.121, -129.7888
8620.000000, 69.208, -125.5169
8750.000000, 70.633, -124.2321
8850.000000, 71.713, -125.6497
9000.000000, 73.078, -130.8523
9120.000000, 73.894, -136.7800
9250.000000, 74.504, -144.3525
9380.000000, 74.823, -152.9083
9500.000000, 74.746, -161.5131
9620.000000, 74.227, -169.4535
9750.000000, 73.309, -175.8270
9880.000000, 72.250, -179.4859
10000.000000, 71.317, 179.1874
10150.000000, 70.327, 179.2373
10300.000000, 69.530, -179.7472
10440.000000, 68.908, -178.2971
10600.000000, 68.324, -176.0406
10750.000000, 67.932, -173.3151
10900.000000, 67.733, -170.4911
11060.000000, 67.702, -167.8963
11200.000000, 67.795, -165.8691
11380.000000, 68.215, -163.7421
11500.000000, 68.693, -163.7148
11720.000000, 69.676, -168.2394
11800.000000, 69.976, -171.5088
12060.000000, 70.115, 172.5685
12200.000000, 69.314, 163.0169
12410.000000, 67.054, 154.2478
12500.000000, 65.953, 153.1825
12650.000000, 64.201, 154.5630
12800.000000, 62.778, 159.0455
13150.000000, 60.850, 169.8392
13200.000000, 60.650, 171.2405
13400.000000, 59.964, 176.8676
13600.000000, 59.450, -177.6487
13800.000000, 59.103, -172.3578
14000.000000, 58.876, -167.3366
14300.000000, 58.749, -160.3372
14500.000000, 58.746, -156.0377
14750.000000, 58.800, -150.8387
15000.000000, 59.094, -145.0826
15250.000000, 59.719, -139.5184
15500.000000, 60.673, -135.2862
15750.000000, 61.888, -132.9617
16000.000000, 63.293, -133.1107
16250.000000, 64.730, -136.6812
16500.000000, 65.856, -143.9337
16750.000000, 66.255, -152.4178
17000.000000, 66.379, -155.2781
17250.000000, 68.000, -155.1061
17500.000000, 69.473, -168.0001
17750.000000, 68.927, 176.4591
18000.000000, 67.550, 168.1294
18250.000000, 66.417, 161.3157
18500.000000, 64.717, 151.0808
18750.000000, 61.749, 140.6580
19000.000000, 57.534, 131.5241
19250.000000, 52.145, 123.0979
19500.000000, 45.777, 115.1534
19750.000000, 40.456, 107.6248
20000.000000, 40.106, 100.6937
