* Measurement data measured by REW V5.31.3
* Source: Input device not selected, no input selected, L, volume: no control
* Format: 256k Log Swept Sine, 1 sweep at -12.0 dBFS with no timing reference
* Dated: Nov 4, 2024 10:18:25 PM
* REW Settings:
*  C-weighting compensation: Off
*  Target level: 75.0 dB
* Note: ; 
* Measurement: Bluelover (10ohm, Stock M) L
* Smoothing: 1/24 octave
* Frequency Step: 1/48 octave
* Start Frequency: 20.300 Hz
*
* Freq(Hz), SPL(dB), Phase(degrees)
20.299999, 84.057, 10.5796
20.600000, 84.044, 10.0138
20.900000, 84.024, 9.3979
21.200001, 84.004, 8.7838
21.400000, 83.994, 8.3792
21.799999, 83.981, 7.5856
22.000000, 83.977, 7.1993
22.400000, 83.968, 6.4593
22.700001, 83.956, 5.9435
23.000000, 83.937, 5.4662
23.299999, 83.914, 5.0221
23.600000, 83.890, 4.5951
24.000000, 83.863, 4.0134
24.299999, 83.849, 3.5443
24.700001, 83.836, 2.8692
25.000000, 83.826, 2.3441
25.400000, 83.808, 1.6646
25.799999, 83.781, 1.0470
26.200001, 83.747, 0.4917
26.500000, 83.720, 0.0914
26.900000, 83.684, -0.4618
27.200001, 83.659, -0.9055
27.600000, 83.627, -1.5206
28.000000, 83.596, -2.1118
28.500000, 83.562, -2.7343
29.000000, 83.530, -3.2118
29.500000, 83.497, -3.6408
30.000000, 83.454, -4.1559
30.400000, 83.412, -4.6741
30.700001, 83.377, -5.1120
31.100000, 83.328, -5.7134
31.500000, 83.282, -6.2727
32.000000, 83.233, -6.8487
32.500000, 83.195, -7.3064
33.000000, 83.159, -7.7419
33.500000, 83.115, -8.2401
34.000000, 83.061, -8.8005
34.500000, 83.007, -9.3578
35.000000, 82.966, -9.8685
35.500000, 82.940, -10.3660
36.000000, 82.914, -10.9154
36.500000, 82.871, -11.5285
37.000000, 82.808, -12.1425
37.500000, 82.740, -12.6839
38.200001, 82.669, -13.3048
38.700001, 82.635, -13.7038
39.500000, 82.566, -14.2885
40.000000, 82.508, -14.6028
40.599998, 82.437, -14.9962
41.200001, 82.377, -15.5315
41.799999, 82.321, -16.2218
42.500000, 82.253, -17.0366
43.099998, 82.199, -17.6157
43.700001, 82.144, -18.0994
44.400002, 82.057, -18.5637
45.000000, 81.960, -18.8203
45.500000, 81.888, -18.9722
46.200001, 81.830, -19.3670
46.799999, 81.797, -20.0128
47.500000, 81.721, -20.7744
48.200001, 81.614, -21.0492
48.700001, 81.550, -21.0205
49.400002, 81.483, -21.1336
50.000000, 81.418, -21.5470
50.799999, 81.314, -22.2174
51.500000, 81.245, -22.6707
52.200001, 81.199, -23.0622
53.000000, 81.144, -23.4883
53.799999, 81.080, -23.8698
54.500000, 81.012, -24.2048
55.200001, 80.927, -24.5540
56.000000, 80.813, -24.9573
57.000000, 80.677, -25.4450
58.000000, 80.558, -25.9239
59.000000, 80.426, -26.3949
60.000000, 80.301, -26.6402
60.799999, 80.237, -26.7806
61.500000, 80.180, -26.9878
62.200001, 80.109, -27.2523
63.000000, 80.022, -27.6420
64.000000, 79.897, -28.1955
65.000000, 79.767, -28.4573
66.000000, 79.672, -28.4880
67.000000, 79.583, -28.4932
68.000000, 79.477, -28.5428
69.000000, 79.367, -28.7041
70.000000, 79.285, -28.8351
71.000000, 79.213, -28.9853
72.000000, 79.107, -29.2939
73.000000, 78.982, -29.5829
74.000000, 78.864, -29.5104
75.000000, 78.750, -29.1990
76.199997, 78.626, -29.1650
77.500000, 78.516, -29.5307
78.800003, 78.355, -29.8639
80.000000, 78.184, -30.1704
81.199997, 78.052, -30.2036
82.500000, 77.950, -29.9140
83.800003, 77.830, -29.9729
85.000000, 77.699, -30.0127
86.199997, 77.596, -29.8554
87.500000, 77.492, -29.7756
88.500000, 77.390, -29.6416
90.000000, 77.238, -29.3770
91.199997, 77.130, -29.3154
92.500000, 76.991, -29.1072
93.800003, 76.851, -28.9193
95.000000, 76.740, -28.9019
96.199997, 76.655, -28.7483
97.500000, 76.563, -28.5089
98.800003, 76.450, -28.1315
100.000000, 76.321, -27.7560
101.500000, 76.165, -27.5336
103.000000, 76.046, -27.3455
104.400002, 75.940, -27.0958
106.000000, 75.821, -26.7274
107.500000, 75.710, -26.2285
109.000000, 75.622, -25.8506
110.599998, 75.496, -25.6024
112.000000, 75.360, -25.3382
113.800003, 75.246, -24.5650
115.000000, 75.188, -24.0389
117.199997, 75.016, -23.2962
118.000000, 74.946, -23.0545
120.599998, 74.774, -22.0249
122.000000, 74.699, -21.3591
124.099998, 74.604, -20.5279
125.000000, 74.556, -20.1347
126.500000, 74.494, -19.5252
128.000000, 74.437, -19.0580
131.500000, 74.225, -18.0214
132.000000, 74.194, -17.8897
134.000000, 74.081, -17.1805
136.000000, 73.987, -16.2771
138.000000, 73.892, -15.4435
140.000000, 73.811, -14.5467
143.000000, 73.715, -13.3176
145.000000, 73.650, -12.7268
147.500000, 73.578, -11.8377
150.000000, 73.500, -10.7165
152.500000, 73.435, -9.6465
155.000000, 73.385, -8.9329
157.500000, 73.343, -8.3457
160.000000, 73.265, -7.0582
162.500000, 73.225, -5.7786
165.000000, 73.211, -5.0507
167.500000, 73.222, -4.4015
170.000000, 73.211, -3.6360
172.500000, 73.185, -2.6822
175.000000, 73.155, -1.6522
177.500000, 73.117, -0.5829
180.000000, 73.109, 0.0097
182.500000, 73.126, 0.6185
185.000000, 73.132, 1.4926
187.500000, 73.093, 2.3453
190.000000, 73.045, 3.0853
192.500000, 73.025, 3.8381
195.000000, 73.023, 4.4943
197.500000, 73.042, 4.9982
200.000000, 73.047, 5.5889
203.000000, 73.053, 6.4741
206.000000, 73.070, 7.3049
209.000000, 73.099, 8.0545
212.000000, 73.094, 8.8445
214.000000, 73.098, 9.3570
218.000000, 73.142, 10.1466
220.000000, 73.149, 10.5860
224.000000, 73.192, 11.4458
227.000000, 73.224, 12.1156
230.000000, 73.212, 12.7243
233.000000, 73.200, 13.2461
236.000000, 73.230, 13.9873
240.000000, 73.271, 14.8163
243.000000, 73.291, 15.3958
247.000000, 73.322, 16.2475
250.000000, 73.355, 16.6798
254.000000, 73.373, 17.4522
258.000000, 73.395, 18.2658
262.000000, 73.387, 18.6802
265.000000, 73.380, 19.0993
269.000000, 73.402, 19.9125
272.000000, 73.410, 20.4709
276.000000, 73.411, 20.9697
280.000000, 73.414, 21.2642
285.000000, 73.420, 21.8543
290.000000, 73.437, 22.6784
295.000000, 73.471, 23.4946
300.000000, 73.488, 24.0978
304.000000, 73.516, 24.4545
307.000000, 73.530, 24.8219
311.000000, 73.543, 25.2743
315.000000, 73.558, 25.7158
320.000000, 73.557, 26.4655
325.000000, 73.571, 27.4486
330.000000, 73.582, 28.1238
335.000000, 73.595, 28.6636
340.000000, 73.610, 29.1866
345.000000, 73.627, 29.9008
350.000000, 73.663, 30.5566
355.000000, 73.669, 31.2635
360.000000, 73.647, 32.0456
365.000000, 73.642, 32.6158
370.000000, 73.664, 33.3600
375.000000, 73.696, 34.2866
382.000000, 73.736, 35.2051
387.000000, 73.775, 35.8682
395.000000, 73.854, 36.9823
400.000000, 73.893, 37.5382
406.000000, 73.970, 37.9597
412.000000, 74.033, 38.3053
418.000000, 74.071, 38.6302
425.000000, 74.106, 39.1450
431.000000, 74.122, 39.4623
437.000000, 74.153, 39.7779
444.000000, 74.159, 40.3657
450.000000, 74.138, 41.0228
455.000000, 74.109, 41.4264
462.000000, 74.071, 41.9514
468.000000, 74.076, 42.4331
475.000000, 74.090, 42.9349
482.000000, 74.099, 43.5156
487.000000, 74.112, 44.0019
494.000000, 74.127, 44.8183
500.000000, 74.123, 45.6018
508.000000, 74.106, 46.4180
515.000000, 74.098, 46.8720
522.000000, 74.089, 47.4156
530.000000, 74.099, 48.1226
538.000000, 74.117, 48.9297
545.000000, 74.111, 49.7083
552.000000, 74.091, 50.3497
560.000000, 74.084, 51.1194
570.000000, 74.098, 52.0933
580.000000, 74.117, 53.0573
590.000000, 74.117, 53.9546
600.000000, 74.099, 54.8124
608.000000, 74.100, 55.7598
615.000000, 74.108, 56.5201
622.000000, 74.105, 57.1611
630.000000, 74.103, 57.8434
640.000000, 74.116, 58.8086
650.000000, 74.142, 59.9119
660.000000, 74.164, 61.0355
670.000000, 74.169, 62.0864
680.000000, 74.160, 63.1052
690.000000, 74.192, 63.9855
700.000000, 74.223, 64.8703
710.000000, 74.217, 65.8823
720.000000, 74.208, 66.8625
730.000000, 74.230, 67.8574
740.000000, 74.263, 68.8738
750.000000, 74.295, 69.8423
762.000000, 74.318, 71.1660
775.000000, 74.349, 72.5796
788.000000, 74.384, 73.9433
800.000000, 74.404, 75.1405
812.000000, 74.447, 76.3475
825.000000, 74.491, 77.6806
838.000000, 74.537, 79.1859
850.000000, 74.568, 80.5209
862.000000, 74.620, 81.7320
875.000000, 74.661, 83.0225
885.000000, 74.693, 84.1704
900.000000, 74.768, 85.8718
912.000000, 74.837, 87.0459
925.000000, 74.925, 88.3596
938.000000, 75.022, 89.6441
950.000000, 75.127, 90.8201
962.000000, 75.246, 92.0115
975.000000, 75.357, 93.3376
988.000000, 75.442, 94.6547
1000.000000, 75.535, 95.7171
1015.000000, 75.688, 97.0062
1030.000000, 75.833, 98.2716
1044.000000, 75.963, 99.4169
1060.000000, 76.114, 100.4913
1075.000000, 76.254, 101.3769
1090.000000, 76.400, 102.4430
1106.000000, 76.566, 103.5503
1120.000000, 76.711, 104.4189
1138.000000, 76.880, 105.4157
1150.000000, 76.982, 106.0680
1172.000000, 77.182, 107.2123
1180.000000, 77.257, 107.5867
1206.000000, 77.482, 108.7092
1220.000000, 77.593, 109.2507
1241.000000, 77.758, 110.0009
1250.000000, 77.823, 110.3355
1265.000000, 77.928, 110.8962
1280.000000, 78.037, 111.4676
1315.000000, 78.254, 112.8023
1320.000000, 78.285, 112.9781
1340.000000, 78.403, 113.6697
1360.000000, 78.519, 114.3343
1380.000000, 78.646, 115.0060
1400.000000, 78.749, 115.6816
1430.000000, 78.893, 116.7808
1450.000000, 78.994, 117.4477
1475.000000, 79.120, 118.2679
1500.000000, 79.253, 119.1091
1525.000000, 79.384, 119.9147
1550.000000, 79.502, 120.8475
1575.000000, 79.619, 121.7081
1600.000000, 79.743, 122.5280
1625.000000, 79.866, 123.4334
1650.000000, 79.992, 124.2558
1675.000000, 80.121, 125.0249
1700.000000, 80.259, 125.8276
1725.000000, 80.394, 126.6390
1750.000000, 80.516, 127.4645
1775.000000, 80.640, 128.2172
1800.000000, 80.777, 128.9360
1825.000000, 80.922, 129.6194
1850.000000, 81.073, 130.2751
1875.000000, 81.221, 130.8661
1900.000000, 81.369, 131.3719
1925.000000, 81.515, 131.8407
1950.000000, 81.658, 132.3347
1975.000000, 81.810, 132.8245
2000.000000, 81.966, 133.2307
2030.000000, 82.141, 133.5803
2060.000000, 82.318, 133.8785
2090.000000, 82.505, 134.0799
2120.000000, 82.691, 134.2316
2140.000000, 82.805, 134.2824
2180.000000, 83.021, 134.2044
2200.000000, 83.131, 134.1004
2240.000000, 83.340, 133.7686
2270.000000, 83.486, 133.4023
2300.000000, 83.623, 132.9283
2330.000000, 83.742, 132.3626
2360.000000, 83.841, 131.6387
2400.000000, 83.946, 130.5437
2430.000000, 84.006, 129.7017
2470.000000, 84.051, 128.4804
2500.000000, 84.054, 127.5127
2540.000000, 84.013, 126.2587
2580.000000, 83.918, 125.0102
2620.000000, 83.769, 123.8286
2650.000000, 83.624, 123.0079
2690.000000, 83.389, 122.2174
2720.000000, 83.185, 121.8784
2760.000000, 82.893, 121.7383
2800.000000, 82.597, 121.9589
2850.000000, 82.250, 122.7794
2900.000000, 81.932, 124.1336
2950.000000, 81.687, 125.6480
3000.000000, 81.510, 127.1080
3040.000000, 81.381, 128.2542
3070.000000, 81.294, 129.0902
3110.000000, 81.186, 130.1646
3150.000000, 81.086, 131.2226
3200.000000, 80.969, 132.5302
3250.000000, 80.839, 133.7616
3300.000000, 80.725, 135.0375
3350.000000, 80.625, 136.3879
3400.000000, 80.545, 137.7464
3450.000000, 80.461, 138.9576
3500.000000, 80.381, 140.1093
3550.000000, 80.285, 141.2035
3600.000000, 80.171, 142.2773
3650.000000, 80.062, 143.5229
3700.000000, 79.962, 144.8610
3750.000000, 79.857, 146.2518
3820.000000, 79.700, 148.2279
3870.000000, 79.605, 149.7868
3950.000000, 79.484, 152.3152
4000.000000, 79.416, 153.9115
4060.000000, 79.356, 155.8470
4120.000000, 79.326, 157.7994
4180.000000, 79.297, 159.7818
4250.000000, 79.276, 162.0544
4310.000000, 79.273, 163.9419
4370.000000, 79.285, 165.7859
4440.000000, 79.294, 167.7390
4500.000000, 79.308, 169.4183
4550.000000, 79.322, 170.9344
4620.000000, 79.353, 173.0965
4680.000000, 79.407, 174.9032
4750.000000, 79.495, 177.0724
4820.000000, 79.620, 179.3733
4870.000000, 79.740, -179.0016
4940.000000, 79.965, -176.8948
5000.000000, 80.196, -175.4642
5080.000000, 80.529, -174.1118
5150.000000, 80.822, -173.4448
5220.000000, 81.095, -173.1346
5300.000000, 81.371, -173.1762
5380.000000, 81.598, -173.6105
5450.000000, 81.767, -174.1970
5520.000000, 81.923, -174.9101
5600.000000, 82.077, -175.8458
5700.000000, 82.261, -177.4086
5800.000000, 82.443, -179.8999
5900.000000, 82.498, 176.0672
6000.000000, 82.191, 170.9514
6080.000000, 81.608, 167.3830
6150.000000, 80.920, 165.4588
6220.000000, 80.172, 164.8987
6300.000000, 79.341, 165.8174
6400.000000, 78.440, 168.3725
6500.000000, 77.717, 171.8076
6600.000000, 77.131, 175.8037
6700.000000, 76.655, 179.9328
6800.000000, 76.278, -175.8969
6900.000000, 75.978, -171.6679
7000.000000, 75.755, -167.3766
7100.000000, 75.585, -163.1105
7200.000000, 75.482, -159.0605
7300.000000, 75.439, -155.1824
7400.000000, 75.431, -151.1845
7500.000000, 75.489, -147.0045
7620.000000, 75.665, -142.2445
7750.000000, 75.975, -137.2913
7880.000000, 76.382, -132.6416
8000.000000, 76.891, -128.8510
8120.000000, 77.517, -125.4604
8250.000000, 78.328, -122.5286
8380.000000, 79.318, -120.3962
8500.000000, 80.517, -119.4900
8620.000000, 82.051, -121.7084
8750.000000, 83.642, -130.1411
8850.000000, 84.401, -140.4190
9000.000000, 84.292, -158.2445
9120.000000, 83.123, -170.2540
9250.000000, 81.213, -177.2244
9380.000000, 79.371, -177.5931
9500.000000, 78.176, -175.2422
9620.000000, 77.351, -172.9090
9750.000000, 76.649, -170.7153
9880.000000, 76.044, -168.4317
10000.000000, 75.574, -165.9698
10150.000000, 75.123, -162.6605
10300.000000, 74.786, -159.6000
10440.000000, 74.517, -156.9653
10600.000000, 74.272, -153.8104
10750.000000, 74.176, -150.5400
10900.000000, 74.243, -147.4822
11060.000000, 74.491, -144.8186
11200.000000, 74.797, -143.1215
11380.000000, 75.377, -141.5230
11500.000000, 75.952, -141.7196
11720.000000, 77.089, -146.9621
11800.000000, 77.428, -150.4347
12060.000000, 77.731, -166.3776
12200.000000, 77.102, -176.2674
12410.000000, 75.000, 172.9109
12500.000000, 73.887, 171.0905
12650.000000, 72.086, 170.9854
12800.000000, 70.433, 174.5220
13150.000000, 68.397, -169.9689
13200.000000, 68.265, -168.1360
13400.000000, 67.817, -161.9039
13600.000000, 67.458, -156.3641
13800.000000, 67.248, -151.2340
14000.000000, 67.235, -146.4160
14300.000000, 67.347, -139.8881
14500.000000, 67.561, -135.7345
14750.000000, 68.016, -131.1974
15000.000000, 68.606, -126.7845
15250.000000, 69.492, -122.7736
15500.000000, 70.744, -120.3888
15750.000000, 72.353, -120.7680
16000.000000, 74.092, -125.2470
16250.000000, 75.610, -134.6485
16500.000000, 76.402, -147.6411
16750.000000, 76.132, -160.0529
17000.000000, 75.294, -164.2917
17250.000000, 76.200, -159.6588
17500.000000, 78.189, -167.7885
17750.000000, 78.454, 175.9766
18000.000000, 77.929, 165.4426
18250.000000, 78.192, 157.9530
18500.000000, 78.691, 145.3472
18750.000000, 78.366, 130.1427
19000.000000, 77.296, 116.4019
19250.000000, 75.842, 105.5615
19500.000000, 74.285, 97.7766
19750.000000, 72.839, 92.3178
20000.000000, 71.899, 88.7460
