* Measurement data measured by REW V5.31.3
* Source: Input device not selected, no input selected, L, volume: no control
* Format: 256k Log Swept Sine, 1 sweep at -11.0 dBFS with no timing reference
* Dated: Jul 4, 2025 2:22:34 AM
* REW Settings:
*  C-weighting compensation: Off
*  Target level: 75.0 dB
* Note: ; 
* Measurement: Bluelover (5ohm, Final E M) L
* Smoothing: 1/24 octave
* Frequency Step: 1/48 octave
* Start Frequency: 20.300 Hz
*
* Freq(Hz), SPL(dB), Phase(degrees)
20.299999, 90.938, 4.0338
20.600000, 90.932, 3.5472
20.900000, 90.922, 2.9971
21.200001, 90.913, 2.4366
21.400000, 90.908, 2.0592
21.799999, 90.899, 1.3016
22.000000, 90.895, 0.9270
22.400000, 90.884, 0.2021
22.700001, 90.872, -0.3123
23.000000, 90.858, -0.8015
23.299999, 90.842, -1.2732
23.600000, 90.825, -1.7385
24.000000, 90.800, -2.3651
24.299999, 90.781, -2.8443
24.700001, 90.756, -3.4891
25.000000, 90.737, -3.9677
25.400000, 90.713, -4.5888
25.799999, 90.690, -5.1889
26.200001, 90.667, -5.7765
26.500000, 90.648, -6.2151
26.900000, 90.620, -6.7997
27.200001, 90.596, -7.2350
27.600000, 90.563, -7.8039
28.000000, 90.530, -8.3534
28.500000, 90.491, -9.0143
29.000000, 90.456, -9.6588
29.500000, 90.420, -10.2985
30.000000, 90.380, -10.9331
30.400000, 90.346, -11.4305
30.700001, 90.319, -11.7942
31.100000, 90.284, -12.2655
31.500000, 90.250, -12.7232
32.000000, 90.208, -13.2828
32.500000, 90.163, -13.8326
33.000000, 90.114, -14.3702
33.500000, 90.063, -14.8934
34.000000, 90.014, -15.4104
34.500000, 89.969, -15.9372
35.000000, 89.926, -16.4788
35.500000, 89.881, -17.0177
36.000000, 89.831, -17.5275
36.500000, 89.779, -17.9982
37.000000, 89.727, -18.4448
37.500000, 89.678, -18.8875
38.200001, 89.608, -19.5030
38.700001, 89.558, -19.9262
39.500000, 89.479, -20.5853
40.000000, 89.430, -21.0099
40.599998, 89.368, -21.5328
41.200001, 89.304, -22.0389
41.799999, 89.239, -22.5019
42.500000, 89.159, -22.9912
43.099998, 89.089, -23.3917
43.700001, 89.018, -23.8016
44.400002, 88.939, -24.3057
45.000000, 88.874, -24.7420
45.500000, 88.819, -25.0892
46.200001, 88.742, -25.5435
46.799999, 88.674, -25.9154
47.500000, 88.595, -26.3312
48.200001, 88.521, -26.7098
48.700001, 88.470, -26.9590
49.400002, 88.400, -27.3103
50.000000, 88.335, -27.6436
50.799999, 88.239, -28.1267
51.500000, 88.147, -28.5275
52.200001, 88.056, -28.8747
53.000000, 87.957, -29.2435
53.799999, 87.866, -29.6040
54.500000, 87.800, -29.8882
55.200001, 87.742, -30.1505
56.000000, 87.657, -30.4269
57.000000, 87.513, -30.6914
58.000000, 87.379, -31.0509
59.000000, 87.263, -31.5596
60.000000, 87.147, -31.8984
60.799999, 87.055, -32.0952
61.500000, 86.972, -32.2965
62.200001, 86.886, -32.4947
63.000000, 86.791, -32.6779
64.000000, 86.671, -32.8946
65.000000, 86.547, -33.1493
66.000000, 86.429, -33.3879
67.000000, 86.317, -33.5510
68.000000, 86.202, -33.6726
69.000000, 86.078, -33.7891
70.000000, 85.957, -33.8912
71.000000, 85.848, -34.0194
72.000000, 85.738, -34.1642
73.000000, 85.620, -34.2386
74.000000, 85.500, -34.2787
75.000000, 85.379, -34.3345
76.199997, 85.242, -34.3825
77.500000, 85.099, -34.3961
78.800003, 84.956, -34.3642
80.000000, 84.823, -34.3216
81.199997, 84.690, -34.2737
82.500000, 84.544, -34.1940
83.800003, 84.399, -34.0976
85.000000, 84.270, -33.9747
86.199997, 84.146, -33.8007
87.500000, 84.011, -33.6134
88.500000, 83.905, -33.4624
90.000000, 83.747, -33.2232
91.199997, 83.625, -33.0131
92.500000, 83.501, -32.7760
93.800003, 83.375, -32.5123
95.000000, 83.258, -32.2356
96.199997, 83.138, -31.9441
97.500000, 83.011, -31.6018
98.800003, 82.892, -31.2437
100.000000, 82.780, -30.9032
101.500000, 82.644, -30.4406
103.000000, 82.513, -29.9887
104.400002, 82.395, -29.5695
106.000000, 82.259, -28.9861
107.500000, 82.136, -28.4380
109.000000, 82.021, -27.9440
110.599998, 81.899, -27.3718
112.000000, 81.797, -26.8519
113.800003, 81.666, -26.1844
115.000000, 81.583, -25.7309
117.199997, 81.435, -24.7725
118.000000, 81.382, -24.4141
120.599998, 81.226, -23.2907
122.000000, 81.151, -22.6981
124.099998, 81.040, -21.8175
125.000000, 80.994, -21.4357
126.500000, 80.920, -20.7694
128.000000, 80.844, -20.0885
131.500000, 80.676, -18.4846
132.000000, 80.655, -18.2590
134.000000, 80.579, -17.3554
136.000000, 80.510, -16.4748
138.000000, 80.444, -15.6008
140.000000, 80.379, -14.7188
143.000000, 80.294, -13.3779
145.000000, 80.243, -12.4942
147.500000, 80.187, -11.4014
150.000000, 80.138, -10.3430
152.500000, 80.098, -9.3131
155.000000, 80.057, -8.3216
157.500000, 80.021, -7.3440
160.000000, 79.994, -6.3712
162.500000, 79.975, -5.3921
165.000000, 79.957, -4.4303
167.500000, 79.941, -3.5220
170.000000, 79.930, -2.6533
172.500000, 79.922, -1.7881
175.000000, 79.919, -0.9364
177.500000, 79.917, -0.1099
180.000000, 79.917, 0.6870
182.500000, 79.922, 1.4615
185.000000, 79.926, 2.2221
187.500000, 79.931, 2.9600
190.000000, 79.935, 3.6648
192.500000, 79.940, 4.3513
195.000000, 79.947, 5.0328
197.500000, 79.953, 5.7225
200.000000, 79.959, 6.4039
203.000000, 79.969, 7.1990
206.000000, 79.981, 7.9954
209.000000, 79.994, 8.8241
212.000000, 80.013, 9.6535
214.000000, 80.028, 10.2186
218.000000, 80.061, 11.3807
220.000000, 80.085, 11.9506
224.000000, 80.152, 13.0684
227.000000, 80.224, 13.8727
230.000000, 80.310, 14.5665
233.000000, 80.401, 15.1104
236.000000, 80.490, 15.4542
240.000000, 80.590, 15.7178
243.000000, 80.642, 15.8621
247.000000, 80.688, 16.0258
250.000000, 80.711, 16.1587
254.000000, 80.731, 16.4154
258.000000, 80.748, 16.7181
262.000000, 80.759, 17.0361
265.000000, 80.765, 17.2869
269.000000, 80.772, 17.6626
272.000000, 80.776, 17.9638
276.000000, 80.786, 18.3562
280.000000, 80.796, 18.7346
285.000000, 80.807, 19.2180
290.000000, 80.820, 19.6802
295.000000, 80.829, 20.1664
300.000000, 80.836, 20.6439
304.000000, 80.841, 21.0255
307.000000, 80.845, 21.3012
311.000000, 80.849, 21.6561
315.000000, 80.853, 22.0160
320.000000, 80.859, 22.4754
325.000000, 80.862, 22.9186
330.000000, 80.865, 23.3468
335.000000, 80.869, 23.7634
340.000000, 80.871, 24.1733
345.000000, 80.871, 24.6013
350.000000, 80.870, 25.0301
355.000000, 80.871, 25.4407
360.000000, 80.873, 25.8496
365.000000, 80.872, 26.2589
370.000000, 80.869, 26.6666
375.000000, 80.866, 27.0738
382.000000, 80.859, 27.6395
387.000000, 80.855, 28.0441
395.000000, 80.845, 28.6855
400.000000, 80.839, 29.0823
406.000000, 80.832, 29.5545
412.000000, 80.827, 30.0404
418.000000, 80.820, 30.5402
425.000000, 80.810, 31.1011
431.000000, 80.800, 31.5757
437.000000, 80.791, 32.0667
444.000000, 80.778, 32.6289
450.000000, 80.765, 33.1178
455.000000, 80.756, 33.5258
462.000000, 80.745, 34.0836
468.000000, 80.732, 34.5604
475.000000, 80.717, 35.1018
482.000000, 80.706, 35.6513
487.000000, 80.697, 36.0631
494.000000, 80.683, 36.6481
500.000000, 80.670, 37.1343
508.000000, 80.653, 37.7763
515.000000, 80.639, 38.3434
522.000000, 80.627, 38.9002
530.000000, 80.612, 39.5318
538.000000, 80.595, 40.1488
545.000000, 80.579, 40.7056
552.000000, 80.564, 41.2667
560.000000, 80.547, 41.8913
570.000000, 80.528, 42.6362
580.000000, 80.503, 43.3683
590.000000, 80.468, 44.0758
600.000000, 80.422, 44.8092
608.000000, 80.377, 45.4607
615.000000, 80.337, 46.0909
622.000000, 80.298, 46.7593
630.000000, 80.260, 47.5481
640.000000, 80.223, 48.5801
650.000000, 80.197, 49.6364
660.000000, 80.175, 50.6674
670.000000, 80.157, 51.6718
680.000000, 80.141, 52.6793
690.000000, 80.127, 53.6794
700.000000, 80.117, 54.6665
710.000000, 80.108, 55.6552
720.000000, 80.099, 56.6552
730.000000, 80.091, 57.6428
740.000000, 80.083, 58.6235
750.000000, 80.079, 59.6165
762.000000, 80.075, 60.8282
775.000000, 80.074, 62.1512
788.000000, 80.075, 63.4701
800.000000, 80.081, 64.6929
812.000000, 80.091, 65.9159
825.000000, 80.102, 67.2612
838.000000, 80.121, 68.5984
850.000000, 80.143, 69.8179
862.000000, 80.169, 71.0437
875.000000, 80.204, 72.3684
885.000000, 80.232, 73.3681
900.000000, 80.283, 74.8675
912.000000, 80.328, 76.0665
925.000000, 80.380, 77.3527
938.000000, 80.438, 78.6236
950.000000, 80.497, 79.7599
962.000000, 80.561, 80.8694
975.000000, 80.633, 82.0586
988.000000, 80.707, 83.2291
1000.000000, 80.780, 84.2710
1015.000000, 80.877, 85.5014
1030.000000, 80.977, 86.6967
1044.000000, 81.072, 87.7764
1060.000000, 81.182, 88.9492
1075.000000, 81.286, 89.9924
1090.000000, 81.391, 91.0050
1106.000000, 81.503, 92.0242
1120.000000, 81.600, 92.8514
1138.000000, 81.722, 93.8667
1150.000000, 81.803, 94.5201
1172.000000, 81.946, 95.6431
1180.000000, 81.997, 96.0312
1206.000000, 82.154, 97.2394
1220.000000, 82.233, 97.8663
1241.000000, 82.347, 98.7802
1250.000000, 82.393, 99.1542
1265.000000, 82.469, 99.7587
1280.000000, 82.541, 100.3612
1315.000000, 82.694, 101.7344
1320.000000, 82.715, 101.9281
1340.000000, 82.796, 102.6951
1360.000000, 82.872, 103.4577
1380.000000, 82.944, 104.2323
1400.000000, 83.013, 105.0077
1430.000000, 83.111, 106.1686
1450.000000, 83.175, 106.9505
1475.000000, 83.254, 107.9320
1500.000000, 83.330, 108.9228
1525.000000, 83.405, 109.9320
1550.000000, 83.483, 110.9372
1575.000000, 83.561, 111.9425
1600.000000, 83.640, 112.9626
1625.000000, 83.721, 113.9872
1650.000000, 83.804, 115.0001
1675.000000, 83.889, 116.0009
1700.000000, 83.977, 117.0032
1725.000000, 84.068, 117.9854
1750.000000, 84.163, 118.9524
1775.000000, 84.262, 119.9109
1800.000000, 84.365, 120.8533
1825.000000, 84.471, 121.7703
1850.000000, 84.579, 122.6558
1875.000000, 84.691, 123.5146
1900.000000, 84.805, 124.3446
1925.000000, 84.922, 125.1408
1950.000000, 85.042, 125.8991
1975.000000, 85.165, 126.6180
2000.000000, 85.291, 127.2985
2030.000000, 85.446, 128.0681
2060.000000, 85.603, 128.7626
2090.000000, 85.764, 129.3910
2120.000000, 85.925, 129.9485
2140.000000, 86.034, 130.2701
2180.000000, 86.253, 130.8019
2200.000000, 86.362, 131.0091
2240.000000, 86.578, 131.2807
2270.000000, 86.736, 131.3718
2300.000000, 86.890, 131.3691
2330.000000, 87.038, 131.2607
2360.000000, 87.178, 131.0407
2400.000000, 87.349, 130.5847
2430.000000, 87.462, 130.1194
2470.000000, 87.589, 129.3479
2500.000000, 87.662, 128.6730
2540.000000, 87.725, 127.6760
2580.000000, 87.746, 126.6032
2620.000000, 87.718, 125.5101
2650.000000, 87.666, 124.7288
2690.000000, 87.556, 123.8004
2720.000000, 87.448, 123.2388
2760.000000, 87.277, 122.7264
2800.000000, 87.090, 122.5097
2850.000000, 86.860, 122.6335
2900.000000, 86.659, 123.0471
2950.000000, 86.495, 123.5702
3000.000000, 86.360, 124.0538
3040.000000, 86.261, 124.3538
3070.000000, 86.185, 124.5286
3110.000000, 86.081, 124.7107
3150.000000, 85.966, 124.8374
3200.000000, 85.801, 124.9494
3250.000000, 85.607, 125.0728
3300.000000, 85.379, 125.3137
3350.000000, 85.122, 125.7681
3400.000000, 84.847, 126.5224
3450.000000, 84.574, 127.6148
3500.000000, 84.321, 128.9845
3550.000000, 84.098, 130.5376
3600.000000, 83.902, 132.1705
3650.000000, 83.730, 133.8379
3700.000000, 83.576, 135.5224
3750.000000, 83.438, 137.2192
3820.000000, 83.266, 139.6138
3870.000000, 83.154, 141.3520
3950.000000, 83.001, 144.1764
4000.000000, 82.925, 145.9598
4060.000000, 82.853, 148.0963
4120.000000, 82.800, 150.2327
4180.000000, 82.763, 152.3319
4250.000000, 82.744, 154.7031
4310.000000, 82.741, 156.6755
4370.000000, 82.750, 158.5828
4440.000000, 82.774, 160.7418
4500.000000, 82.803, 162.5350
4550.000000, 82.834, 164.0045
4620.000000, 82.886, 166.0579
4680.000000, 82.944, 167.8422
4750.000000, 83.040, 169.9486
4820.000000, 83.180, 172.0162
4870.000000, 83.312, 173.3987
4940.000000, 83.540, 175.0791
5000.000000, 83.764, 176.1932
5080.000000, 84.080, 177.1147
5150.000000, 84.348, 177.3904
5220.000000, 84.590, 177.2388
5300.000000, 84.824, 176.6456
5380.000000, 85.005, 175.7352
5450.000000, 85.124, 174.7377
5520.000000, 85.214, 173.5754
5600.000000, 85.290, 172.0086
5700.000000, 85.338, 169.4065
5800.000000, 85.258, 165.7043
5900.000000, 84.882, 161.1711
6000.000000, 84.100, 157.2534
6080.000000, 83.247, 155.7280
6150.000000, 82.448, 155.8367
6220.000000, 81.683, 157.1015
6300.000000, 80.906, 159.5283
6400.000000, 80.100, 163.4422
6500.000000, 79.461, 167.8440
6600.000000, 78.962, 172.4717
6700.000000, 78.577, 177.0744
6800.000000, 78.260, -178.4335
6900.000000, 77.999, -173.8744
7000.000000, 77.803, -169.2561
7100.000000, 77.677, -164.6400
7200.000000, 77.617, -160.1016
7300.000000, 77.607, -155.6966
7400.000000, 77.642, -151.2405
7500.000000, 77.751, -146.7676
7620.000000, 77.979, -141.5855
7750.000000, 78.334, -136.2440
7880.000000, 78.814, -131.2215
8000.000000, 79.381, -126.9595
8120.000000, 80.078, -123.2232
8250.000000, 80.988, -119.9501
8380.000000, 82.104, -117.5968
8500.000000, 83.441, -116.7094
8620.000000, 85.076, -119.2177
8750.000000, 86.707, -127.9184
8850.000000, 87.481, -138.3258
9000.000000, 87.400, -156.2766
9120.000000, 86.253, -168.2559
9250.000000, 84.372, -175.0898
9380.000000, 82.567, -175.1178
9500.000000, 81.434, -172.3509
9620.000000, 80.711, -169.5991
9750.000000, 80.135, -167.0433
9880.000000, 79.656, -164.4483
10000.000000, 79.314, -161.7972
10150.000000, 79.045, -158.4202
10300.000000, 78.929, -155.3436
10440.000000, 78.916, -152.8051
10600.000000, 79.003, -150.0356
10750.000000, 79.238, -147.5354
10900.000000, 79.671, -145.5878
11060.000000, 80.329, -144.9217
11200.000000, 80.999, -145.9162
11380.000000, 81.952, -149.5867
11500.000000, 82.574, -154.2515
11720.000000, 83.151, -167.3846
11800.000000, 83.084, -172.8954
12060.000000, 81.919, 170.5803
12200.000000, 80.920, 163.3786
12410.000000, 79.076, 153.5955
12500.000000, 78.016, 150.1087
12650.000000, 75.790, 148.2272
12800.000000, 73.457, 154.2528
13150.000000, 71.298, 177.5310
13200.000000, 71.260, 179.5842
13400.000000, 71.178, -173.9265
13600.000000, 71.162, -168.6416
13800.000000, 71.255, -163.9847
14000.000000, 71.496, -159.9610
14300.000000, 72.162, -155.7100
14500.000000, 72.780, -154.6228
14750.000000, 73.616, -155.8722
15000.000000, 74.353, -159.7966
15250.000000, 74.906, -165.9460
15500.000000, 75.092, -174.1650
15750.000000, 74.721, 177.2876
16000.000000, 73.885, 170.6560
16250.000000, 72.823, 166.9056
16500.000000, 71.717, 166.0150
16750.000000, 70.621, 168.0008
17000.000000, 69.693, 175.2518
17250.000000, 70.365, -168.5593
17500.000000, 72.898, -162.9412
17750.000000, 74.191, -172.5899
18000.000000, 74.336, 179.9336
18250.000000, 74.877, 174.6338
18500.000000, 75.425, 164.3018
18750.000000, 75.237, 150.8938
19000.000000, 74.418, 136.8953
19250.000000, 73.129, 122.3952
19500.000000, 71.428, 106.8664
19750.000000, 69.450, 90.0581
