* Measurement data measured by REW V5.31.3
* Source: Input device not selected, no input selected, L, volume: no control
* Format: 256k Log Swept Sine, 1 sweep at -12.0 dBFS with no timing reference
* Dated: Dec 26, 2024 4:24:36 AM
* REW Settings:
*  C-weighting compensation: Off
*  Target level: 75.0 dB
* Note: ; 
* Measurement: Bluelover (UC M) L
* Smoothing: 1/24 octave
* Frequency Step: 1/48 octave
* Start Frequency: 20.300 Hz
*
* Freq(Hz), SPL(dB), Phase(degrees)
20.299999, 85.391, 6.4858
20.600000, 85.390, 6.0030
20.900000, 85.385, 5.4734
21.200001, 85.377, 4.9505
21.400000, 85.372, 4.6044
21.799999, 85.365, 3.9071
22.000000, 85.363, 3.5527
22.400000, 85.359, 2.8319
22.700001, 85.355, 2.2882
23.000000, 85.347, 1.7536
23.299999, 85.336, 1.2398
23.600000, 85.322, 0.7555
24.000000, 85.298, 0.1570
24.299999, 85.280, -0.2663
24.700001, 85.256, -0.8234
25.000000, 85.239, -1.2530
25.400000, 85.217, -1.8537
25.799999, 85.194, -2.4770
26.200001, 85.169, -3.0962
26.500000, 85.150, -3.5417
26.900000, 85.127, -4.1016
27.200001, 85.111, -4.4994
27.600000, 85.091, -5.0142
28.000000, 85.069, -5.5255
28.500000, 85.037, -6.1674
29.000000, 85.001, -6.8032
29.500000, 84.963, -7.4216
30.000000, 84.927, -8.0206
30.400000, 84.900, -8.4871
30.700001, 84.879, -8.8295
31.100000, 84.849, -9.2759
31.500000, 84.818, -9.7134
32.000000, 84.777, -10.2581
32.500000, 84.735, -10.8118
33.000000, 84.693, -11.3710
33.500000, 84.650, -11.9157
34.000000, 84.605, -12.4269
34.500000, 84.561, -12.9063
35.000000, 84.517, -13.3751
35.500000, 84.473, -13.8533
36.000000, 84.429, -14.3411
36.500000, 84.384, -14.8210
37.000000, 84.341, -15.2762
37.500000, 84.297, -15.7043
38.200001, 84.232, -16.2780
38.700001, 84.182, -16.6827
39.500000, 84.100, -17.3269
40.000000, 84.052, -17.7234
40.599998, 83.997, -18.1863
41.200001, 83.943, -18.6276
41.799999, 83.885, -19.0470
42.500000, 83.816, -19.5253
43.099998, 83.755, -19.9390
43.700001, 83.693, -20.3502
44.400002, 83.622, -20.8067
45.000000, 83.562, -21.1769
45.500000, 83.511, -21.4792
46.200001, 83.439, -21.8947
46.799999, 83.377, -22.2347
47.500000, 83.305, -22.6157
48.200001, 83.233, -23.0019
48.700001, 83.178, -23.2818
49.400002, 83.098, -23.6570
50.000000, 83.031, -23.9539
50.799999, 82.948, -24.3376
51.500000, 82.877, -24.6769
52.200001, 82.804, -25.0068
53.000000, 82.718, -25.3600
53.799999, 82.628, -25.6876
54.500000, 82.550, -25.9530
55.200001, 82.474, -26.2077
56.000000, 82.391, -26.4932
57.000000, 82.286, -26.8354
58.000000, 82.175, -27.2067
59.000000, 82.054, -27.5792
60.000000, 81.943, -27.8426
60.799999, 81.865, -28.0289
61.500000, 81.792, -28.1994
62.200001, 81.716, -28.3460
63.000000, 81.637, -28.5033
64.000000, 81.545, -28.7916
65.000000, 81.436, -29.0839
66.000000, 81.318, -29.2324
67.000000, 81.200, -29.3000
68.000000, 81.086, -29.3548
69.000000, 80.984, -29.4590
70.000000, 80.883, -29.5932
71.000000, 80.776, -29.7208
72.000000, 80.669, -29.8516
73.000000, 80.566, -29.9532
74.000000, 80.466, -29.9732
75.000000, 80.365, -29.9477
76.199997, 80.242, -30.0343
77.500000, 80.099, -30.1440
78.800003, 79.966, -30.0701
80.000000, 79.854, -29.9399
81.199997, 79.746, -29.9163
82.500000, 79.615, -29.9109
83.800003, 79.481, -29.7566
85.000000, 79.363, -29.5877
86.199997, 79.239, -29.4705
87.500000, 79.109, -29.3188
88.500000, 79.020, -29.1951
90.000000, 78.882, -28.8934
91.199997, 78.779, -28.6395
92.500000, 78.673, -28.4424
93.800003, 78.562, -28.2349
95.000000, 78.455, -28.0467
96.199997, 78.348, -27.7982
97.500000, 78.233, -27.4266
98.800003, 78.126, -27.0362
100.000000, 78.035, -26.7045
101.500000, 77.925, -26.3171
103.000000, 77.812, -25.9085
104.400002, 77.705, -25.4896
106.000000, 77.587, -25.0405
107.500000, 77.483, -24.6083
109.000000, 77.387, -24.1076
110.599998, 77.284, -23.5553
112.000000, 77.195, -23.0548
113.800003, 77.087, -22.4043
115.000000, 77.019, -21.9719
117.199997, 76.890, -21.1824
118.000000, 76.841, -20.8630
120.599998, 76.696, -19.7238
122.000000, 76.631, -19.1939
124.099998, 76.530, -18.4138
125.000000, 76.485, -18.0630
126.500000, 76.411, -17.4755
128.000000, 76.345, -16.9243
131.500000, 76.207, -15.5638
132.000000, 76.191, -15.3710
134.000000, 76.131, -14.5859
136.000000, 76.070, -13.7112
138.000000, 76.006, -12.8667
140.000000, 75.946, -12.0806
143.000000, 75.878, -10.8620
145.000000, 75.834, -10.0797
147.500000, 75.785, -9.1175
150.000000, 75.736, -8.1245
152.500000, 75.683, -7.0654
155.000000, 75.649, -6.0183
157.500000, 75.613, -5.0782
160.000000, 75.588, -4.0693
162.500000, 75.575, -2.8935
165.000000, 75.568, -1.7169
167.500000, 75.570, -0.5759
170.000000, 75.604, 0.5998
172.500000, 75.661, 1.7634
175.000000, 75.732, 2.7915
177.500000, 75.822, 3.7221
180.000000, 75.929, 4.4967
182.500000, 76.041, 5.0623
185.000000, 76.154, 5.4254
187.500000, 76.258, 5.5859
190.000000, 76.340, 5.6092
192.500000, 76.397, 5.5888
195.000000, 76.431, 5.5757
197.500000, 76.450, 5.6060
200.000000, 76.459, 5.6917
203.000000, 76.462, 5.8670
206.000000, 76.465, 6.0743
209.000000, 76.465, 6.2797
212.000000, 76.462, 6.5074
214.000000, 76.460, 6.6892
218.000000, 76.462, 7.0858
220.000000, 76.464, 7.2889
224.000000, 76.469, 7.6981
227.000000, 76.471, 7.9953
230.000000, 76.475, 8.2980
233.000000, 76.481, 8.5863
236.000000, 76.487, 8.8736
240.000000, 76.493, 9.2219
243.000000, 76.496, 9.4717
247.000000, 76.503, 9.8125
250.000000, 76.510, 10.0759
254.000000, 76.516, 10.4281
258.000000, 76.520, 10.7404
262.000000, 76.526, 11.0124
265.000000, 76.529, 11.2175
269.000000, 76.533, 11.5178
272.000000, 76.535, 11.7444
276.000000, 76.537, 12.0244
280.000000, 76.538, 12.2930
285.000000, 76.539, 12.6323
290.000000, 76.539, 12.9480
295.000000, 76.537, 13.2473
300.000000, 76.536, 13.5283
304.000000, 76.532, 13.7355
307.000000, 76.528, 13.8758
311.000000, 76.522, 14.0728
315.000000, 76.515, 14.2764
320.000000, 76.505, 14.5241
325.000000, 76.492, 14.7702
330.000000, 76.474, 15.0251
335.000000, 76.454, 15.2831
340.000000, 76.434, 15.5314
345.000000, 76.414, 15.7881
350.000000, 76.394, 16.0457
355.000000, 76.373, 16.3014
360.000000, 76.352, 16.5565
365.000000, 76.329, 16.8040
370.000000, 76.304, 17.0708
375.000000, 76.278, 17.3607
382.000000, 76.242, 17.7896
387.000000, 76.217, 18.0667
395.000000, 76.178, 18.4879
400.000000, 76.155, 18.7571
406.000000, 76.126, 19.0699
412.000000, 76.093, 19.3785
418.000000, 76.056, 19.6915
425.000000, 76.010, 20.0656
431.000000, 75.969, 20.4076
437.000000, 75.929, 20.7724
444.000000, 75.884, 21.2017
450.000000, 75.844, 21.5564
455.000000, 75.809, 21.8587
462.000000, 75.759, 22.3001
468.000000, 75.717, 22.6861
475.000000, 75.670, 23.1313
482.000000, 75.626, 23.5743
487.000000, 75.593, 23.9006
494.000000, 75.543, 24.3887
500.000000, 75.500, 24.8156
508.000000, 75.444, 25.3761
515.000000, 75.396, 25.8647
522.000000, 75.349, 26.3476
530.000000, 75.294, 26.9275
538.000000, 75.239, 27.5080
545.000000, 75.191, 28.0385
552.000000, 75.144, 28.5728
560.000000, 75.089, 29.1858
570.000000, 75.021, 29.9367
580.000000, 74.957, 30.7116
590.000000, 74.893, 31.4990
600.000000, 74.828, 32.3263
608.000000, 74.777, 32.9854
615.000000, 74.730, 33.5480
622.000000, 74.685, 34.1325
630.000000, 74.635, 34.8194
640.000000, 74.576, 35.6784
650.000000, 74.517, 36.5530
660.000000, 74.459, 37.4375
670.000000, 74.402, 38.3182
680.000000, 74.347, 39.2312
690.000000, 74.292, 40.1464
700.000000, 74.241, 41.0650
710.000000, 74.192, 42.0169
720.000000, 74.143, 42.9745
730.000000, 74.095, 43.9280
740.000000, 74.051, 44.9024
750.000000, 74.011, 45.8981
762.000000, 73.963, 47.0929
775.000000, 73.915, 48.4130
788.000000, 73.871, 49.7034
800.000000, 73.836, 50.9151
812.000000, 73.805, 52.1568
825.000000, 73.774, 53.5211
838.000000, 73.751, 54.8858
850.000000, 73.736, 56.1355
862.000000, 73.725, 57.4072
875.000000, 73.721, 58.7594
885.000000, 73.721, 59.7946
900.000000, 73.726, 61.3385
912.000000, 73.737, 62.5588
925.000000, 73.759, 63.8824
938.000000, 73.780, 65.1923
950.000000, 73.800, 66.3810
962.000000, 73.830, 67.5406
975.000000, 73.867, 68.7683
988.000000, 73.907, 69.9608
1000.000000, 73.948, 71.0425
1015.000000, 74.008, 72.3821
1030.000000, 74.071, 73.6619
1044.000000, 74.131, 74.8140
1060.000000, 74.198, 76.0754
1075.000000, 74.267, 77.2013
1090.000000, 74.340, 78.2755
1106.000000, 74.416, 79.3590
1120.000000, 74.478, 80.2703
1138.000000, 74.559, 81.3991
1150.000000, 74.611, 82.1285
1172.000000, 74.701, 83.4160
1180.000000, 74.733, 83.8644
1206.000000, 74.829, 85.2457
1220.000000, 74.878, 85.9639
1241.000000, 74.947, 87.0165
1250.000000, 74.975, 87.4592
1265.000000, 75.020, 88.1927
1280.000000, 75.062, 88.9303
1315.000000, 75.147, 90.6519
1320.000000, 75.158, 90.8937
1340.000000, 75.198, 91.8422
1360.000000, 75.237, 92.7999
1380.000000, 75.273, 93.7851
1400.000000, 75.305, 94.7690
1430.000000, 75.352, 96.2541
1450.000000, 75.386, 97.2645
1475.000000, 75.425, 98.5370
1500.000000, 75.463, 99.8098
1525.000000, 75.504, 101.1088
1550.000000, 75.548, 102.4157
1575.000000, 75.596, 103.7133
1600.000000, 75.648, 105.0301
1625.000000, 75.701, 106.3666
1650.000000, 75.758, 107.6828
1675.000000, 75.820, 108.9996
1700.000000, 75.886, 110.3406
1725.000000, 75.956, 111.6484
1750.000000, 76.032, 112.9470
1775.000000, 76.113, 114.2297
1800.000000, 76.195, 115.5057
1825.000000, 76.281, 116.7738
1850.000000, 76.373, 118.0194
1875.000000, 76.473, 119.2374
1900.000000, 76.578, 120.4381
1925.000000, 76.687, 121.6157
1950.000000, 76.799, 122.7556
1975.000000, 76.915, 123.8549
2000.000000, 77.037, 124.9339
2030.000000, 77.195, 126.1772
2060.000000, 77.357, 127.3634
2090.000000, 77.526, 128.4950
2120.000000, 77.700, 129.5607
2140.000000, 77.819, 130.2246
2180.000000, 78.065, 131.4686
2200.000000, 78.193, 132.0382
2240.000000, 78.454, 133.0579
2270.000000, 78.654, 133.7056
2300.000000, 78.858, 134.2479
2330.000000, 79.064, 134.6812
2360.000000, 79.271, 134.9990
2400.000000, 79.546, 135.2446
2430.000000, 79.750, 135.2773
2470.000000, 80.015, 135.0891
2500.000000, 80.203, 134.7814
2540.000000, 80.437, 134.1659
2580.000000, 80.645, 133.3065
2620.000000, 80.820, 132.2339
2650.000000, 80.925, 131.3089
2690.000000, 81.026, 129.9466
2720.000000, 81.068, 128.8580
2760.000000, 81.080, 127.3827
2800.000000, 81.041, 125.9364
2850.000000, 80.926, 124.2864
2900.000000, 80.754, 122.8976
2950.000000, 80.543, 121.8014
3000.000000, 80.302, 121.0034
3040.000000, 80.098, 120.5483
3070.000000, 79.942, 120.3201
3110.000000, 79.728, 120.1497
3150.000000, 79.510, 120.1147
3200.000000, 79.233, 120.2536
3250.000000, 78.958, 120.6013
3300.000000, 78.689, 121.1414
3350.000000, 78.430, 121.8433
3400.000000, 78.183, 122.6448
3450.000000, 77.943, 123.5051
3500.000000, 77.703, 124.4318
3550.000000, 77.462, 125.4724
3600.000000, 77.220, 126.6599
3650.000000, 76.983, 127.9786
3700.000000, 76.760, 129.4246
3750.000000, 76.551, 130.9916
3820.000000, 76.285, 133.3392
3870.000000, 76.114, 135.0980
3950.000000, 75.879, 138.0108
4000.000000, 75.755, 139.8560
4060.000000, 75.625, 142.0989
4120.000000, 75.515, 144.3507
4180.000000, 75.427, 146.5682
4250.000000, 75.344, 149.1118
4310.000000, 75.285, 151.2816
4370.000000, 75.242, 153.4232
4440.000000, 75.207, 155.9122
4500.000000, 75.187, 158.0714
4550.000000, 75.181, 159.8811
4620.000000, 75.194, 162.4290
4680.000000, 75.228, 164.6451
4750.000000, 75.300, 167.2476
4820.000000, 75.419, 169.8463
4870.000000, 75.539, 171.6492
4940.000000, 75.751, 173.9500
5000.000000, 75.969, 175.6398
5080.000000, 76.291, 177.3929
5150.000000, 76.585, 178.4342
5220.000000, 76.874, 179.0698
5300.000000, 77.183, 179.3535
5380.000000, 77.460, 179.2239
5450.000000, 77.673, 178.8547
5520.000000, 77.866, 178.2891
5600.000000, 78.072, 177.3736
5700.000000, 78.316, 175.6046
5800.000000, 78.500, 172.6302
5900.000000, 78.461, 168.2587
6000.000000, 78.013, 163.5124
6080.000000, 77.354, 160.8016
6150.000000, 76.654, 159.8478
6220.000000, 75.941, 160.2373
6300.000000, 75.195, 161.9675
6400.000000, 74.429, 165.3763
6500.000000, 73.858, 169.4789
6600.000000, 73.461, 173.8056
6700.000000, 73.190, 178.0882
6800.000000, 73.011, -177.6199
6900.000000, 72.927, -173.3295
7000.000000, 72.943, -169.1085
7100.000000, 73.059, -165.0054
7200.000000, 73.282, -161.1552
7300.000000, 73.600, -157.6638
7400.000000, 74.020, -154.4474
7500.000000, 74.580, -151.7067
7620.000000, 75.437, -149.6233
7750.000000, 76.574, -149.5103
7880.000000, 77.847, -152.7189
8000.000000, 78.926, -159.6480
8120.000000, 79.569, -170.3686
8250.000000, 79.402, 175.8347
8380.000000, 78.257, 163.6553
8500.000000, 76.665, 156.7063
8620.000000, 75.075, 153.5283
8750.000000, 73.522, 151.8637
8850.000000, 72.355, 151.2402
9000.000000, 70.501, 151.8605
9120.000000, 68.928, 154.7904
9250.000000, 67.302, 161.6758
9380.000000, 66.158, 172.1012
9500.000000, 65.746, -178.6349
9620.000000, 65.671, -171.7438
9750.000000, 65.652, -166.1561
9880.000000, 65.609, -161.3121
10000.000000, 65.590, -156.9017
10150.000000, 65.641, -151.6255
10300.000000, 65.770, -146.8582
10440.000000, 65.938, -142.8071
10600.000000, 66.170, -138.4389
10750.000000, 66.481, -134.4409
10900.000000, 66.922, -130.6583
11060.000000, 67.517, -127.4142
11200.000000, 68.140, -125.0286
11380.000000, 69.244, -122.9320
11500.000000, 70.136, -123.4751
11720.000000, 71.691, -129.7881
11800.000000, 72.127, -133.7465
12060.000000, 72.531, -150.7885
12200.000000, 71.898, -160.0557
12410.000000, 70.089, -168.3820
12500.000000, 69.257, -169.7791
12650.000000, 67.908, -170.3701
12800.000000, 66.571, -167.8839
13150.000000, 64.978, -154.1057
13200.000000, 64.926, -152.3737
13400.000000, 64.885, -146.3681
13600.000000, 65.057, -141.3209
13800.000000, 65.438, -137.1238
14000.000000, 66.030, -133.9788
14300.000000, 67.282, -132.1179
14500.000000, 68.268, -133.6476
14750.000000, 69.429, -139.3125
15000.000000, 70.248, -148.7670
15250.000000, 70.399, -160.8252
15500.000000, 69.717, -172.1795
15750.000000, 68.470, -179.8803
16000.000000, 67.076, 176.6790
16250.000000, 65.794, 176.8051
16500.000000, 64.693, 179.7108
16750.000000, 63.828, -173.4549
17000.000000, 64.130, -158.8579
17250.000000, 66.608, -148.0998
17500.000000, 68.672, -154.8613
17750.000000, 69.314, -164.5025
18000.000000, 69.846, -170.2898
18250.000000, 70.897, -178.3316
18500.000000, 71.528, 167.4317
18750.000000, 71.192, 150.5730
19000.000000, 70.071, 134.1555
19250.000000, 68.509, 118.0743
19500.000000, 66.599, 100.6119
19750.000000, 64.260, 81.6193
