* Measurement data measured by REW V5.31.3
* Source: Input device not selected, no input selected, L, volume: no control
* Format: 256k Log Swept Sine, 1 sweep at -12.0 dBFS with no timing reference
* Dated: Sep 2, 2024 1:55:29 PM
* REW Settings:
*  C-weighting compensation: Off
*  Target level: 75.0 dB
* Note: ; 
* Measurement: Broken Blessing 2
* Smoothing: 1/24 octave
* Frequency Step: 1/48 octave
* Start Frequency: 20.300 Hz
*
* Freq(Hz), SPL(dB), Phase(degrees)
20.299999, 86.023, 13.5634
20.600000, 86.087, 13.0973
20.900000, 86.187, 12.6432
21.200001, 86.298, 12.1641
21.400000, 86.360, 11.8155
21.799999, 86.426, 11.1069
22.000000, 86.425, 10.7977
22.400000, 86.378, 10.3720
22.700001, 86.335, 10.2122
23.000000, 86.314, 10.0893
23.299999, 86.326, 9.8784
23.600000, 86.360, 9.5042
24.000000, 86.409, 8.8067
24.299999, 86.429, 8.2832
24.700001, 86.433, 7.8043
25.000000, 86.433, 7.6447
25.400000, 86.447, 7.5402
25.799999, 86.466, 7.2903
26.200001, 86.450, 6.7711
26.500000, 86.399, 6.3029
26.900000, 86.286, 5.8362
27.200001, 86.198, 5.7435
27.600000, 86.131, 5.9525
28.000000, 86.157, 6.2645
28.500000, 86.288, 6.2725
29.000000, 86.416, 5.7009
29.500000, 86.461, 4.9347
30.000000, 86.423, 4.4129
30.400000, 86.368, 4.2298
30.700001, 86.327, 4.1462
31.100000, 86.278, 3.9690
31.500000, 86.230, 3.6249
32.000000, 86.160, 3.0014
32.500000, 86.081, 2.3667
33.000000, 86.016, 1.8915
33.500000, 85.981, 1.5632
34.000000, 85.972, 1.2896
34.500000, 85.979, 1.0777
35.000000, 86.008, 1.0230
35.500000, 86.074, 1.1192
36.000000, 86.163, 1.1958
36.500000, 86.223, 1.0952
37.000000, 86.214, 0.8267
37.500000, 86.146, 0.4736
38.200001, 86.044, -0.1910
38.700001, 85.998, -0.7952
39.500000, 85.937, -1.3449
40.000000, 85.923, -1.1373
40.599998, 85.975, -0.8516
41.200001, 86.059, -1.3363
41.799999, 86.085, -2.4435
42.500000, 86.044, -3.1467
43.099998, 86.049, -2.7829
43.700001, 86.098, -2.3600
44.400002, 86.078, -2.7955
45.000000, 85.959, -3.6781
45.500000, 85.868, -4.2580
46.200001, 85.874, -4.5251
46.799999, 85.969, -4.5044
47.500000, 86.033, -4.5479
48.200001, 85.990, -4.8162
48.700001, 85.926, -5.1878
49.400002, 85.840, -5.8610
50.000000, 85.786, -6.3360
50.799999, 85.750, -6.5686
51.500000, 85.764, -6.6478
52.200001, 85.806, -7.0418
53.000000, 85.810, -7.8373
53.799999, 85.742, -8.3363
54.500000, 85.693, -8.3386
55.200001, 85.683, -8.3145
56.000000, 85.663, -8.4396
57.000000, 85.606, -8.6327
58.000000, 85.557, -9.0103
59.000000, 85.539, -9.0518
60.000000, 85.586, -8.8739
60.799999, 85.597, -9.0829
61.500000, 85.578, -9.3670
62.200001, 85.561, -9.6352
63.000000, 85.529, -9.9922
64.000000, 85.441, -10.4601
65.000000, 85.393, -10.9124
66.000000, 85.413, -11.3981
67.000000, 85.438, -11.7324
68.000000, 85.441, -11.9711
69.000000, 85.390, -12.1259
70.000000, 85.314, -12.2590
71.000000, 85.257, -12.6117
72.000000, 85.208, -12.8078
73.000000, 85.159, -12.8355
74.000000, 85.132, -13.2291
75.000000, 85.138, -13.7685
76.199997, 85.137, -13.9132
77.500000, 85.107, -14.2659
78.800003, 85.094, -14.9492
80.000000, 85.043, -15.1406
81.199997, 84.944, -15.4687
82.500000, 84.917, -15.8193
83.800003, 84.935, -15.7854
85.000000, 84.897, -16.0839
86.199997, 84.810, -16.5609
87.500000, 84.757, -16.7150
88.500000, 84.741, -16.8083
90.000000, 84.742, -17.0329
91.199997, 84.753, -17.2706
92.500000, 84.709, -17.5887
93.800003, 84.643, -17.9886
95.000000, 84.608, -18.2598
96.199997, 84.575, -18.2996
97.500000, 84.539, -18.3690
98.800003, 84.493, -18.5915
100.000000, 84.435, -18.8816
101.500000, 84.387, -19.1817
103.000000, 84.385, -19.3456
104.400002, 84.348, -19.5160
106.000000, 84.272, -19.7434
107.500000, 84.225, -20.2217
109.000000, 84.181, -20.5538
110.599998, 84.123, -20.5446
112.000000, 84.086, -20.5726
113.800003, 84.051, -20.8505
115.000000, 84.016, -21.0511
117.199997, 83.960, -21.4049
118.000000, 83.931, -21.5500
120.599998, 83.837, -21.9653
122.000000, 83.791, -22.0715
124.099998, 83.729, -22.2672
125.000000, 83.712, -22.3834
126.500000, 83.681, -22.6037
128.000000, 83.632, -22.8325
131.500000, 83.515, -23.2321
132.000000, 83.504, -23.2728
134.000000, 83.456, -23.3932
136.000000, 83.400, -23.4922
138.000000, 83.331, -23.8021
140.000000, 83.258, -24.1798
143.000000, 83.175, -24.5672
145.000000, 83.127, -24.7502
147.500000, 83.058, -24.9484
150.000000, 82.977, -25.0584
152.500000, 82.895, -25.3031
155.000000, 82.834, -25.6064
157.500000, 82.771, -25.8115
160.000000, 82.693, -26.0156
162.500000, 82.621, -26.2041
165.000000, 82.557, -26.3818
167.500000, 82.491, -26.5384
170.000000, 82.417, -26.6638
172.500000, 82.327, -26.9058
175.000000, 82.240, -27.1235
177.500000, 82.170, -27.2515
180.000000, 82.106, -27.3340
182.500000, 82.040, -27.4448
185.000000, 81.979, -27.6030
187.500000, 81.906, -27.7496
190.000000, 81.826, -27.8784
192.500000, 81.758, -28.0086
195.000000, 81.694, -28.1141
197.500000, 81.623, -28.2500
200.000000, 81.551, -28.4184
203.000000, 81.471, -28.5027
206.000000, 81.398, -28.5508
209.000000, 81.318, -28.6286
212.000000, 81.230, -28.7836
214.000000, 81.172, -28.9024
218.000000, 81.068, -29.0580
220.000000, 81.022, -29.0838
224.000000, 80.919, -29.1625
227.000000, 80.829, -29.2547
230.000000, 80.743, -29.3680
233.000000, 80.666, -29.5044
236.000000, 80.591, -29.5588
240.000000, 80.491, -29.5218
243.000000, 80.411, -29.5167
247.000000, 80.297, -29.6364
250.000000, 80.218, -29.6919
254.000000, 80.121, -29.7157
258.000000, 80.021, -29.7995
262.000000, 79.920, -29.8142
265.000000, 79.844, -29.8117
269.000000, 79.745, -29.7790
272.000000, 79.669, -29.7764
276.000000, 79.572, -29.7971
280.000000, 79.475, -29.8225
285.000000, 79.349, -29.7838
290.000000, 79.218, -29.7939
295.000000, 79.093, -29.7633
300.000000, 78.970, -29.6958
304.000000, 78.868, -29.6505
307.000000, 78.792, -29.5913
311.000000, 78.692, -29.5251
315.000000, 78.595, -29.4815
320.000000, 78.479, -29.4185
325.000000, 78.374, -29.3451
330.000000, 78.260, -29.2706
335.000000, 78.140, -29.1441
340.000000, 78.021, -29.0656
345.000000, 77.903, -28.9083
350.000000, 77.790, -28.7585
355.000000, 77.678, -28.6050
360.000000, 77.564, -28.4644
365.000000, 77.456, -28.3134
370.000000, 77.347, -28.1547
375.000000, 77.236, -27.9837
382.000000, 77.077, -27.7317
387.000000, 76.963, -27.5259
395.000000, 76.786, -27.2225
400.000000, 76.683, -27.0554
406.000000, 76.558, -26.8275
412.000000, 76.424, -26.6239
418.000000, 76.286, -26.3784
425.000000, 76.137, -26.0597
431.000000, 76.012, -25.7625
437.000000, 75.875, -25.5341
444.000000, 75.713, -25.2451
450.000000, 75.582, -24.9496
455.000000, 75.481, -24.6827
462.000000, 75.336, -24.2817
468.000000, 75.203, -23.9352
475.000000, 75.045, -23.4761
482.000000, 74.889, -22.9908
487.000000, 74.781, -22.6009
494.000000, 74.633, -21.9851
500.000000, 74.503, -21.4540
508.000000, 74.332, -20.7936
515.000000, 74.190, -20.1772
522.000000, 74.062, -19.5060
530.000000, 73.930, -18.5977
538.000000, 73.797, -17.6885
545.000000, 73.680, -17.0217
552.000000, 73.578, -16.4090
560.000000, 73.473, -15.7039
570.000000, 73.341, -14.8405
580.000000, 73.209, -13.9588
590.000000, 73.073, -13.0889
600.000000, 72.933, -12.4004
608.000000, 72.822, -11.7515
615.000000, 72.720, -11.1416
622.000000, 72.617, -10.5929
630.000000, 72.505, -9.9911
640.000000, 72.361, -9.1398
650.000000, 72.222, -8.2442
660.000000, 72.093, -7.3421
670.000000, 71.962, -6.5187
680.000000, 71.820, -5.7278
690.000000, 71.680, -4.8173
700.000000, 71.552, -3.8388
710.000000, 71.431, -2.9074
720.000000, 71.306, -1.9705
730.000000, 71.178, -0.8840
740.000000, 71.062, 0.1216
750.000000, 70.959, 1.0240
762.000000, 70.829, 2.1810
775.000000, 70.674, 3.5486
788.000000, 70.527, 4.9607
800.000000, 70.392, 6.3548
812.000000, 70.267, 7.5962
825.000000, 70.156, 9.0118
838.000000, 70.038, 10.5301
850.000000, 69.931, 11.8299
862.000000, 69.833, 13.1874
875.000000, 69.744, 14.7575
885.000000, 69.675, 15.9265
900.000000, 69.568, 17.6509
912.000000, 69.502, 19.0384
925.000000, 69.429, 20.6059
938.000000, 69.365, 22.1500
950.000000, 69.323, 23.5970
962.000000, 69.274, 25.0504
975.000000, 69.227, 26.6053
988.000000, 69.200, 28.2610
1000.000000, 69.183, 29.7536
1015.000000, 69.175, 31.2896
1030.000000, 69.182, 32.9627
1044.000000, 69.191, 34.4624
1060.000000, 69.195, 36.1881
1075.000000, 69.221, 37.7747
1090.000000, 69.261, 39.3088
1106.000000, 69.299, 40.8121
1120.000000, 69.359, 42.0757
1138.000000, 69.448, 43.6941
1150.000000, 69.500, 44.6411
1172.000000, 69.599, 46.0815
1180.000000, 69.632, 46.6121
1206.000000, 69.772, 48.2935
1220.000000, 69.842, 49.0133
1241.000000, 69.925, 49.9699
1250.000000, 69.964, 50.3504
1265.000000, 70.026, 50.9523
1280.000000, 70.077, 51.4697
1315.000000, 70.132, 52.6336
1320.000000, 70.137, 52.8234
1340.000000, 70.153, 53.4782
1360.000000, 70.151, 54.0710
1380.000000, 70.138, 54.7504
1400.000000, 70.106, 55.3858
1430.000000, 70.065, 56.2871
1450.000000, 70.048, 57.0203
1475.000000, 70.018, 57.9193
1500.000000, 69.960, 58.7867
1525.000000, 69.906, 59.7511
1550.000000, 69.845, 60.6905
1575.000000, 69.772, 61.6195
1600.000000, 69.709, 62.7844
1625.000000, 69.661, 64.0065
1650.000000, 69.608, 65.1611
1675.000000, 69.539, 66.4144
1700.000000, 69.467, 67.6496
1725.000000, 69.421, 68.8795
1750.000000, 69.374, 70.1845
1775.000000, 69.314, 71.4497
1800.000000, 69.257, 72.7856
1825.000000, 69.207, 74.1304
1850.000000, 69.173, 75.4128
1875.000000, 69.151, 76.7069
1900.000000, 69.131, 78.0840
1925.000000, 69.117, 79.4822
1950.000000, 69.099, 80.8952
1975.000000, 69.073, 82.3353
2000.000000, 69.056, 83.7829
2030.000000, 69.065, 85.4439
2060.000000, 69.072, 87.0830
2090.000000, 69.075, 88.7047
2120.000000, 69.094, 90.3371
2140.000000, 69.108, 91.4033
2180.000000, 69.158, 93.5114
2200.000000, 69.187, 94.5545
2240.000000, 69.248, 96.5630
2270.000000, 69.292, 97.9789
2300.000000, 69.340, 99.4687
2330.000000, 69.405, 101.0301
2360.000000, 69.467, 102.5668
2400.000000, 69.561, 104.4109
2430.000000, 69.640, 105.7976
2470.000000, 69.750, 107.6400
2500.000000, 69.839, 108.9365
2540.000000, 69.967, 110.6711
2580.000000, 70.103, 112.4090
2620.000000, 70.240, 114.0684
2650.000000, 70.351, 115.1841
2690.000000, 70.505, 116.5950
2720.000000, 70.623, 117.5974
2760.000000, 70.798, 118.8865
2800.000000, 70.993, 120.0964
2850.000000, 71.242, 121.4569
2900.000000, 71.487, 122.6134
2950.000000, 71.731, 123.5902
3000.000000, 71.983, 124.1985
3040.000000, 72.201, 124.5828
3070.000000, 72.362, 124.7976
3110.000000, 72.562, 124.9327
3150.000000, 72.748, 124.8061
3200.000000, 72.970, 124.3877
3250.000000, 73.161, 123.6657
3300.000000, 73.309, 122.6547
3350.000000, 73.406, 121.4685
3400.000000, 73.442, 120.2778
3450.000000, 73.424, 119.0416
3500.000000, 73.349, 117.7709
3550.000000, 73.225, 116.4902
3600.000000, 73.056, 115.3083
3650.000000, 72.825, 114.4049
3700.000000, 72.537, 113.7300
3750.000000, 72.222, 113.3158
3820.000000, 71.730, 113.2612
3870.000000, 71.347, 113.6490
3950.000000, 70.728, 115.0474
4000.000000, 70.361, 116.3562
4060.000000, 69.941, 118.3527
4120.000000, 69.534, 120.7306
4180.000000, 69.156, 123.5871
4250.000000, 68.778, 127.2400
4310.000000, 68.494, 130.5774
4370.000000, 68.266, 134.2047
4440.000000, 68.065, 138.5741
4500.000000, 67.948, 142.4105
4550.000000, 67.892, 145.7342
4620.000000, 67.867, 150.4259
4680.000000, 67.885, 154.3154
4750.000000, 67.973, 158.8752
4820.000000, 68.124, 163.4367
4870.000000, 68.265, 166.6109
4940.000000, 68.515, 170.9719
5000.000000, 68.772, 174.7214
5080.000000, 69.212, 179.5109
5150.000000, 69.662, -176.6710
5220.000000, 70.166, -173.0414
5300.000000, 70.824, -169.2600
5380.000000, 71.569, -166.0689
5450.000000, 72.309, -163.9020
5520.000000, 73.120, -162.4020
5600.000000, 74.101, -161.7332
5700.000000, 75.376, -162.9718
5800.000000, 76.559, -167.0650
5900.000000, 77.440, -173.8845
6000.000000, 77.831, 177.5838
6080.000000, 77.736, 170.7212
6150.000000, 77.382, 165.4418
6220.000000, 76.843, 161.2245
6300.000000, 76.091, 157.9099
6400.000000, 75.080, 155.9338
6500.000000, 74.094, 155.9301
6600.000000, 73.192, 157.2776
6700.000000, 72.399, 159.7224
6800.000000, 71.727, 162.9350
6900.000000, 71.165, 166.5374
7000.000000, 70.703, 170.4828
7100.000000, 70.309, 174.7241
7200.000000, 69.991, 179.0304
7300.000000, 69.778, -176.4873
7400.000000, 69.639, -171.9089
7500.000000, 69.550, -167.2679
7620.000000, 69.504, -161.6349
7750.000000, 69.544, -155.5968
7880.000000, 69.708, -149.5610
8000.000000, 69.942, -144.1292
8120.000000, 70.251, -138.9031
8250.000000, 70.678, -133.4114
8380.000000, 71.176, -128.1188
8500.000000, 71.731, -122.9133
8620.000000, 72.485, -117.5145
8750.000000, 73.565, -112.7928
8850.000000, 74.509, -110.3674
9000.000000, 76.020, -108.6445
9120.000000, 77.265, -108.9427
9250.000000, 78.592, -111.1418
9380.000000, 79.832, -115.4141
9500.000000, 80.810, -121.0650
9620.000000, 81.550, -128.0189
9750.000000, 82.036, -136.3573
9880.000000, 82.204, -144.9081
10000.000000, 82.085, -152.6199
10150.000000, 81.572, -161.2966
10300.000000, 80.749, -168.0275
10440.000000, 79.846, -172.1775
10600.000000, 78.815, -174.6626
10750.000000, 77.941, -175.3271
10900.000000, 77.192, -174.8906
11060.000000, 76.537, -173.7800
11200.000000, 76.075, -172.5112
11380.000000, 75.602, -170.7526
11500.000000, 75.346, -169.6541
11720.000000, 74.948, -167.7658
11800.000000, 74.824, -167.0704
12060.000000, 74.520, -164.9160
12200.000000, 74.397, -164.1433
12410.000000, 74.192, -163.3618
12500.000000, 74.092, -163.0970
12650.000000, 73.903, -162.6848
12800.000000, 73.695, -162.2360
13150.000000, 73.166, -160.6086
13200.000000, 73.088, -160.2912
13400.000000, 72.786, -158.7834
13600.000000, 72.530, -156.9399
13800.000000, 72.335, -154.7439
14000.000000, 72.220, -152.2630
14300.000000, 72.287, -148.0620
14500.000000, 72.515, -145.3569
14750.000000, 73.030, -142.6134
15000.000000, 73.802, -141.2628
15250.000000, 74.781, -142.0825
15500.000000, 75.858, -145.7595
15750.000000, 76.823, -152.7724
16000.000000, 77.407, -162.5217
16250.000000, 77.430, -173.4074
16500.000000, 76.937, 176.6890
16750.000000, 76.140, 169.1524
17000.000000, 75.271, 164.1639
17250.000000, 74.478, 161.1527
17500.000000, 73.863, 159.5437
17750.000000, 73.487, 158.8943
18000.000000, 73.409, 158.3425
18250.000000, 73.615, 156.7010
18500.000000, 73.964, 153.0922
18750.000000, 74.270, 147.3861
19000.000000, 74.418, 140.1146
19250.000000, 74.374, 131.9516
19500.000000, 74.181, 123.3561
19750.000000, 73.923, 114.6064
20000.000000, 73.733, 107.4783
