* Measurement data measured by REW V5.31.3
* Source: Input device not selected, no input selected, L, volume: no control
* Format: 256k Log Swept Sine, 1 sweep at -12.0 dBFS with no timing reference
* Dated: Dec 24, 2024 9:55:54 PM
* REW Settings:
*  C-weighting compensation: Off
*  Target level: 75.0 dB
* Note: 
* Measurement: Castor Pro Bass (UDDD F)
* Smoothing: 1/24 octave
* Frequency Step: 1/48 octave
* Start Frequency: 20.300 Hz
*
* Freq(Hz), SPL(dB), Phase(degrees)
20.299999, 82.579, -144.8369
20.600000, 82.613, -145.1825
20.900000, 82.646, -145.6002
21.200001, 82.676, -146.0387
21.400000, 82.695, -146.3317
21.799999, 82.739, -146.9036
22.000000, 82.765, -147.1810
22.400000, 82.824, -147.7264
22.700001, 82.872, -148.1339
23.000000, 82.919, -148.5418
23.299999, 82.961, -148.9462
23.600000, 82.998, -149.3418
24.000000, 83.042, -149.8509
24.299999, 83.073, -150.2218
24.700001, 83.115, -150.7115
25.000000, 83.148, -151.0793
25.400000, 83.191, -151.5676
25.799999, 83.232, -152.0436
26.200001, 83.271, -152.4998
26.500000, 83.298, -152.8311
26.900000, 83.334, -153.2688
27.200001, 83.360, -153.6018
27.600000, 83.396, -154.0571
28.000000, 83.432, -154.5211
28.500000, 83.477, -155.0944
29.000000, 83.518, -155.6374
29.500000, 83.555, -156.1432
30.000000, 83.591, -156.6287
30.400000, 83.619, -157.0208
30.700001, 83.640, -157.3221
31.100000, 83.668, -157.7303
31.500000, 83.694, -158.1329
32.000000, 83.724, -158.6133
32.500000, 83.751, -159.0823
33.000000, 83.772, -159.5820
33.500000, 83.783, -160.1322
34.000000, 83.786, -160.6968
34.500000, 83.792, -161.2174
35.000000, 83.813, -161.6765
35.500000, 83.850, -162.1080
36.000000, 83.890, -162.5452
36.500000, 83.922, -162.9831
37.000000, 83.943, -163.4025
37.500000, 83.959, -163.8097
38.200001, 83.980, -164.4003
38.700001, 83.992, -164.8289
39.500000, 84.006, -165.4535
40.000000, 84.016, -165.8135
40.599998, 84.030, -166.2656
41.200001, 84.044, -166.7571
41.799999, 84.060, -167.2665
42.500000, 84.078, -167.8534
43.099998, 84.089, -168.3354
43.700001, 84.092, -168.7917
44.400002, 84.091, -169.3004
45.000000, 84.093, -169.7190
45.500000, 84.098, -170.0495
46.200001, 84.114, -170.4943
46.799999, 84.129, -170.8885
47.500000, 84.139, -171.3799
48.200001, 84.139, -171.8894
48.700001, 84.135, -172.2577
49.400002, 84.129, -172.7677
50.000000, 84.125, -173.1770
50.799999, 84.127, -173.6816
51.500000, 84.134, -174.1322
52.200001, 84.136, -174.5930
53.000000, 84.128, -175.0517
53.799999, 84.118, -175.4421
54.500000, 84.115, -175.8355
55.200001, 84.113, -176.3069
56.000000, 84.108, -176.8618
57.000000, 84.087, -177.4705
58.000000, 84.054, -177.9291
59.000000, 84.057, -178.4922
60.000000, 84.064, -179.2301
60.799999, 84.049, -179.6619
61.500000, 84.031, -179.9607
62.200001, 84.013, 179.7291
63.000000, 84.009, 179.3572
64.000000, 84.026, 178.7747
65.000000, 84.007, 178.2092
66.000000, 83.973, 177.8127
67.000000, 83.945, 177.2927
68.000000, 83.912, 176.7151
69.000000, 83.891, 176.2042
70.000000, 83.877, 175.7544
71.000000, 83.856, 175.3234
72.000000, 83.825, 174.8663
73.000000, 83.797, 174.3768
74.000000, 83.766, 173.8880
75.000000, 83.730, 173.4744
76.199997, 83.701, 172.9864
77.500000, 83.667, 172.4313
78.800003, 83.619, 171.9059
80.000000, 83.571, 171.4449
81.199997, 83.532, 170.9839
82.500000, 83.496, 170.5252
83.800003, 83.465, 170.0884
85.000000, 83.430, 169.5240
86.199997, 83.384, 168.9431
87.500000, 83.329, 168.4660
88.500000, 83.290, 168.0830
90.000000, 83.233, 167.5584
91.199997, 83.189, 167.2192
92.500000, 83.135, 166.7836
93.800003, 83.079, 166.3166
95.000000, 83.027, 165.9093
96.199997, 82.978, 165.5237
97.500000, 82.930, 165.1041
98.800003, 82.886, 164.6638
100.000000, 82.841, 164.2908
101.500000, 82.769, 163.8610
103.000000, 82.691, 163.4329
104.400002, 82.626, 163.0010
106.000000, 82.551, 162.5490
107.500000, 82.479, 162.1325
109.000000, 82.409, 161.6825
110.599998, 82.332, 161.2557
112.000000, 82.258, 160.9349
113.800003, 82.169, 160.5412
115.000000, 82.113, 160.2460
117.199997, 82.003, 159.6915
118.000000, 81.961, 159.4972
120.599998, 81.828, 158.8502
122.000000, 81.761, 158.5899
124.099998, 81.649, 158.2835
125.000000, 81.598, 158.1345
126.500000, 81.512, 157.8495
128.000000, 81.427, 157.5176
131.500000, 81.237, 156.9106
132.000000, 81.210, 156.8297
134.000000, 81.093, 156.4296
136.000000, 80.975, 156.0551
138.000000, 80.865, 155.6580
140.000000, 80.754, 155.3375
143.000000, 80.573, 155.0922
145.000000, 80.450, 154.8294
147.500000, 80.306, 154.4456
150.000000, 80.164, 154.1781
152.500000, 80.009, 153.9697
155.000000, 79.856, 153.7885
157.500000, 79.695, 153.6227
160.000000, 79.540, 153.5619
162.500000, 79.394, 153.5370
165.000000, 79.233, 153.3754
167.500000, 79.079, 153.2415
170.000000, 78.924, 153.1029
172.500000, 78.765, 153.1217
175.000000, 78.607, 153.1801
177.500000, 78.444, 153.2543
180.000000, 78.289, 153.3212
182.500000, 78.132, 153.3747
185.000000, 77.978, 153.4518
187.500000, 77.821, 153.5224
190.000000, 77.659, 153.5819
192.500000, 77.501, 153.7130
195.000000, 77.349, 153.9419
197.500000, 77.202, 154.2297
200.000000, 77.051, 154.4859
203.000000, 76.858, 154.8101
206.000000, 76.667, 155.3177
209.000000, 76.474, 155.8442
212.000000, 76.285, 156.2547
214.000000, 76.164, 156.5302
218.000000, 75.925, 157.1940
220.000000, 75.811, 157.5714
224.000000, 75.599, 158.3997
227.000000, 75.429, 158.9734
230.000000, 75.249, 159.6416
233.000000, 75.081, 160.3335
236.000000, 74.918, 160.9491
240.000000, 74.711, 161.9016
243.000000, 74.563, 162.6884
247.000000, 74.372, 163.7703
250.000000, 74.240, 164.6552
254.000000, 74.044, 165.9794
258.000000, 73.850, 167.2016
262.000000, 73.682, 168.5236
265.000000, 73.560, 169.5992
269.000000, 73.407, 170.8958
272.000000, 73.309, 171.7774
276.000000, 73.170, 173.0302
280.000000, 73.027, 174.4671
285.000000, 72.873, 176.3466
290.000000, 72.734, 178.1785
295.000000, 72.595, 179.9017
300.000000, 72.480, -178.3297
304.000000, 72.421, -176.8906
307.000000, 72.384, -175.7987
311.000000, 72.335, -174.4358
315.000000, 72.283, -173.1040
320.000000, 72.206, -171.3342
325.000000, 72.147, -169.4518
330.000000, 72.117, -167.6855
335.000000, 72.099, -166.0957
340.000000, 72.082, -164.6413
345.000000, 72.086, -163.0963
350.000000, 72.098, -161.4687
355.000000, 72.096, -159.8446
360.000000, 72.097, -158.3700
365.000000, 72.111, -156.9714
370.000000, 72.134, -155.6454
375.000000, 72.157, -154.3217
382.000000, 72.176, -152.4134
387.000000, 72.197, -151.2122
395.000000, 72.268, -149.3759
400.000000, 72.315, -148.2111
406.000000, 72.382, -146.8855
412.000000, 72.449, -145.5346
418.000000, 72.501, -144.2539
425.000000, 72.559, -143.0430
431.000000, 72.602, -141.9737
437.000000, 72.652, -140.7162
444.000000, 72.719, -139.4256
450.000000, 72.771, -138.4073
455.000000, 72.816, -137.5411
462.000000, 72.890, -136.3689
468.000000, 72.947, -135.4211
475.000000, 73.003, -134.4658
482.000000, 73.048, -133.5730
487.000000, 73.083, -132.8718
494.000000, 73.148, -131.7638
500.000000, 73.199, -130.8878
508.000000, 73.259, -129.8882
515.000000, 73.313, -129.0056
522.000000, 73.362, -128.0287
530.000000, 73.414, -126.8824
538.000000, 73.464, -125.9299
545.000000, 73.500, -125.1236
552.000000, 73.539, -124.2784
560.000000, 73.595, -123.3803
570.000000, 73.666, -122.1936
580.000000, 73.726, -121.0982
590.000000, 73.787, -120.0524
600.000000, 73.839, -118.9947
608.000000, 73.882, -118.1330
615.000000, 73.915, -117.3872
622.000000, 73.949, -116.7212
630.000000, 73.992, -115.9395
640.000000, 74.048, -114.9173
650.000000, 74.092, -113.9792
660.000000, 74.101, -113.1011
670.000000, 74.087, -111.8979
680.000000, 74.107, -110.4904
690.000000, 74.158, -109.2408
700.000000, 74.221, -108.1023
710.000000, 74.285, -107.0140
720.000000, 74.348, -105.9487
730.000000, 74.407, -104.8695
740.000000, 74.454, -103.8006
750.000000, 74.497, -102.7784
762.000000, 74.556, -101.5247
775.000000, 74.623, -100.2172
788.000000, 74.693, -98.8867
800.000000, 74.765, -97.6206
812.000000, 74.818, -96.3463
825.000000, 74.885, -94.9437
838.000000, 74.965, -93.6534
850.000000, 75.040, -92.4980
862.000000, 75.121, -91.2505
875.000000, 75.218, -89.8893
885.000000, 75.294, -88.8718
900.000000, 75.408, -87.3356
912.000000, 75.498, -86.0730
925.000000, 75.599, -84.8456
938.000000, 75.695, -83.6651
950.000000, 75.787, -82.5571
962.000000, 75.894, -81.4464
975.000000, 76.012, -80.2942
988.000000, 76.124, -79.2218
1000.000000, 76.227, -78.2479
1015.000000, 76.383, -76.9951
1030.000000, 76.545, -75.7737
1044.000000, 76.688, -74.7322
1060.000000, 76.843, -73.6755
1075.000000, 76.989, -72.6850
1090.000000, 77.139, -71.7170
1106.000000, 77.297, -70.6971
1120.000000, 77.437, -69.8829
1138.000000, 77.608, -68.9716
1150.000000, 77.716, -68.4150
1172.000000, 77.918, -67.3792
1180.000000, 77.988, -67.0114
1206.000000, 78.211, -65.8835
1220.000000, 78.325, -65.3001
1241.000000, 78.481, -64.4721
1250.000000, 78.547, -64.1490
1265.000000, 78.655, -63.6338
1280.000000, 78.762, -63.0947
1315.000000, 78.995, -61.8898
1320.000000, 79.026, -61.7216
1340.000000, 79.152, -61.0481
1360.000000, 79.271, -60.3860
1380.000000, 79.385, -59.7133
1400.000000, 79.492, -59.0719
1430.000000, 79.650, -58.0823
1450.000000, 79.754, -57.4390
1475.000000, 79.880, -56.6194
1500.000000, 80.001, -55.8053
1525.000000, 80.119, -55.0168
1550.000000, 80.242, -54.2391
1575.000000, 80.360, -53.4221
1600.000000, 80.479, -52.5997
1625.000000, 80.589, -51.7712
1650.000000, 80.701, -50.9930
1675.000000, 80.816, -50.2468
1700.000000, 80.931, -49.5165
1725.000000, 81.048, -48.7554
1750.000000, 81.165, -47.9523
1775.000000, 81.282, -47.2100
1800.000000, 81.397, -46.5267
1825.000000, 81.509, -45.8497
1850.000000, 81.625, -45.1549
1875.000000, 81.747, -44.5033
1900.000000, 81.867, -43.8732
1925.000000, 81.989, -43.2490
1950.000000, 82.111, -42.6667
1975.000000, 82.234, -42.1237
2000.000000, 82.358, -41.6030
2030.000000, 82.501, -40.9675
2060.000000, 82.644, -40.3708
2090.000000, 82.790, -39.8264
2120.000000, 82.932, -39.3568
2140.000000, 83.024, -39.0671
2180.000000, 83.206, -38.5137
2200.000000, 83.297, -38.2537
2240.000000, 83.479, -37.7810
2270.000000, 83.614, -37.4705
2300.000000, 83.744, -37.1964
2330.000000, 83.872, -36.9690
2360.000000, 84.001, -36.7593
2400.000000, 84.169, -36.5413
2430.000000, 84.292, -36.4331
2470.000000, 84.453, -36.3075
2500.000000, 84.568, -36.2557
2540.000000, 84.717, -36.2430
2580.000000, 84.865, -36.3163
2620.000000, 85.007, -36.4561
2650.000000, 85.107, -36.5994
2690.000000, 85.233, -36.8479
2720.000000, 85.321, -37.0660
2760.000000, 85.432, -37.4124
2800.000000, 85.534, -37.8108
2850.000000, 85.646, -38.3817
2900.000000, 85.740, -39.0282
2950.000000, 85.821, -39.7481
3000.000000, 85.881, -40.5468
3040.000000, 85.905, -41.2811
3070.000000, 85.908, -41.8910
3110.000000, 85.879, -42.8199
3150.000000, 85.764, -43.7268
3200.000000, 85.512, -43.2346
3250.000000, 85.659, -41.1210
3300.000000, 85.931, -42.1631
3350.000000, 85.961, -43.8093
3400.000000, 85.900, -45.0247
3450.000000, 85.814, -45.9879
3500.000000, 85.718, -46.8165
3550.000000, 85.607, -47.5521
3600.000000, 85.483, -48.2029
3650.000000, 85.351, -48.8150
3700.000000, 85.207, -49.3774
3750.000000, 85.055, -49.8711
3820.000000, 84.825, -50.4726
3870.000000, 84.652, -50.8278
3950.000000, 84.358, -51.2616
4000.000000, 84.164, -51.4448
4060.000000, 83.923, -51.5918
4120.000000, 83.673, -51.6423
4180.000000, 83.418, -51.6205
4250.000000, 83.115, -51.4935
4310.000000, 82.851, -51.2650
4370.000000, 82.582, -50.9501
4440.000000, 82.263, -50.4641
4500.000000, 81.985, -49.9340
4550.000000, 81.755, -49.4065
4620.000000, 81.433, -48.5611
4680.000000, 81.160, -47.7705
4750.000000, 80.845, -46.7205
4820.000000, 80.533, -45.5347
4870.000000, 80.316, -44.6148
4940.000000, 80.022, -43.2534
5000.000000, 79.779, -42.0156
5080.000000, 79.462, -40.3061
5150.000000, 79.202, -38.7646
5220.000000, 78.957, -37.1655
5300.000000, 78.684, -35.3153
5380.000000, 78.423, -33.4505
5450.000000, 78.201, -31.7914
5520.000000, 77.981, -30.1007
5600.000000, 77.733, -28.1967
5700.000000, 77.431, -25.7633
5800.000000, 77.134, -23.2639
5900.000000, 76.836, -20.6625
6000.000000, 76.548, -17.8965
6080.000000, 76.338, -15.6059
6150.000000, 76.166, -13.5468
6220.000000, 75.999, -11.4602
6300.000000, 75.815, -9.0534
6400.000000, 75.609, -5.9941
6500.000000, 75.424, -2.8803
6600.000000, 75.259, 0.2525
6700.000000, 75.115, 3.4301
6800.000000, 75.003, 6.5994
6900.000000, 74.921, 9.7398
7000.000000, 74.854, 12.9190
7100.000000, 74.809, 16.1825
7200.000000, 74.797, 19.3339
7300.000000, 74.811, 22.3068
7400.000000, 74.853, 25.1648
7500.000000, 74.917, 27.9613
7620.000000, 75.017, 31.1109
7750.000000, 75.150, 34.2754
7880.000000, 75.292, 37.2324
8000.000000, 75.424, 39.8388
8120.000000, 75.568, 42.4213
8250.000000, 75.747, 45.1077
8380.000000, 75.947, 47.7740
8500.000000, 76.168, 50.1655
8620.000000, 76.427, 52.4119
8750.000000, 76.760, 54.5951
8850.000000, 77.054, 56.0234
9000.000000, 77.526, 57.7147
9120.000000, 77.913, 58.6064
9250.000000, 78.336, 59.1627
9380.000000, 78.759, 59.3348
9500.000000, 79.145, 59.1057
9620.000000, 79.488, 58.4691
9750.000000, 79.814, 57.7926
9880.000000, 80.197, 57.1382
10000.000000, 80.555, 55.7637
10150.000000, 80.871, 53.5754
10300.000000, 81.119, 51.7203
10440.000000, 81.353, 50.2343
10600.000000, 81.655, 48.6152
10750.000000, 82.001, 47.0777
10900.000000, 82.432, 45.2875
11060.000000, 82.998, 42.6981
11200.000000, 83.578, 39.5020
11380.000000, 84.398, 33.5072
11500.000000, 84.934, 27.9718
11720.000000, 85.618, 14.2353
11800.000000, 85.688, 8.2817
12060.000000, 84.986, -12.0100
12200.000000, 84.044, -21.8244
12410.000000, 82.159, -33.2087
12500.000000, 81.265, -36.7716
12650.000000, 79.754, -41.1289
12800.000000, 78.288, -43.8115
13150.000000, 75.241, -45.8856
13200.000000, 74.850, -45.8745
13400.000000, 73.386, -45.4167
13600.000000, 72.071, -44.6523
13800.000000, 70.866, -43.8505
14000.000000, 69.727, -43.0619
14300.000000, 68.079, -41.5490
14500.000000, 67.019, -40.2275
14750.000000, 65.702, -38.3730
15000.000000, 64.389, -36.1923
15250.000000, 63.055, -33.4151
15500.000000, 61.777, -29.2411
15750.000000, 60.697, -22.3875
16000.000000, 60.427, -15.2587
16250.000000, 60.448, -14.8172
16500.000000, 59.761, -15.9878
16750.000000, 58.755, -14.2012
17000.000000, 57.874, -10.8726
17250.000000, 57.111, -7.3441
17500.000000, 56.348, -4.5996
17750.000000, 55.567, -2.1120
18000.000000, 54.779, 0.8646
18250.000000, 53.909, 3.8605
18500.000000, 53.065, 6.2903
18750.000000, 52.198, 7.2401
19000.000000, 51.084, 5.5993
19250.000000, 49.729, 2.4475
19500.000000, 48.206, -2.1154
19750.000000, 46.550, -8.9304
