* Measurement data measured by REW V5.31.3
* Source: Input device not selected, no input selected, L, volume: no control
* Format: 256k Log Swept Sine, 1 sweep at -12.0 dBFS with no timing reference
* Dated: Dec 17, 2024 11:49:31 PM
* REW Settings:
*  C-weighting compensation: Off
*  Target level: 75.0 dB
* Note: ; 
* Measurement: Castor Pro Bass (UUUU S M)
* Smoothing: 1/24 octave
* Frequency Step: 1/48 octave
* Start Frequency: 20.300 Hz
*
* Freq(Hz), SPL(dB), Phase(degrees)
20.299999, 82.626, -137.6266
20.600000, 82.736, -135.3957
20.900000, 82.855, -134.3521
21.200001, 82.879, -135.1280
21.400000, 82.815, -136.5639
21.799999, 82.522, -140.9825
22.000000, 82.337, -143.5921
22.400000, 82.035, -148.6388
22.700001, 81.955, -151.6405
23.000000, 82.019, -153.6651
23.299999, 82.184, -154.7556
23.600000, 82.378, -155.1324
24.000000, 82.576, -154.9604
24.299999, 82.639, -154.6218
24.700001, 82.611, -154.2822
25.000000, 82.534, -154.3278
25.400000, 82.413, -154.9269
25.799999, 82.336, -155.9743
26.200001, 82.360, -157.0426
26.500000, 82.455, -157.6300
26.900000, 82.654, -158.0639
27.200001, 82.813, -158.2161
27.600000, 82.964, -158.3323
28.000000, 82.999, -158.3817
28.500000, 82.912, -158.2357
29.000000, 82.838, -157.9620
29.500000, 82.912, -158.1868
30.000000, 83.076, -159.4336
30.400000, 83.149, -160.9415
30.700001, 83.130, -162.0289
31.100000, 83.021, -163.0037
31.500000, 82.899, -163.2030
32.000000, 82.891, -162.7679
32.500000, 83.093, -162.6443
33.000000, 83.350, -163.3815
33.500000, 83.477, -164.3964
34.000000, 83.432, -164.7719
34.500000, 83.324, -164.2596
35.000000, 83.298, -163.6404
35.500000, 83.400, -164.0576
36.000000, 83.570, -165.9252
36.500000, 83.733, -168.7203
37.000000, 83.848, -171.5563
37.500000, 83.901, -173.7115
38.200001, 83.886, -174.9024
38.700001, 83.850, -174.4132
39.500000, 83.846, -172.4796
40.000000, 83.846, -171.7302
40.599998, 83.715, -171.9845
41.200001, 83.398, -172.8513
41.799999, 83.109, -173.1752
42.500000, 83.192, -172.8837
43.099998, 83.515, -173.0862
43.700001, 83.671, -173.4287
44.400002, 83.505, -172.5490
45.000000, 83.331, -171.1903
45.500000, 83.313, -171.1286
46.200001, 83.392, -173.0635
46.799999, 83.462, -174.4261
47.500000, 83.624, -173.7217
48.200001, 83.859, -172.3676
48.700001, 83.932, -172.4720
49.400002, 83.828, -174.1624
50.000000, 83.732, -176.0376
50.799999, 83.856, -178.1335
51.500000, 84.013, -179.4604
52.200001, 83.964, 179.8701
53.000000, 83.742, 179.6722
53.799999, 83.580, 179.2299
54.500000, 83.521, 178.9186
55.200001, 83.525, 179.2023
56.000000, 83.592, 179.4471
57.000000, 83.637, 178.3901
58.000000, 83.644, 177.4166
59.000000, 83.667, 177.2717
60.000000, 83.596, 176.9453
60.799999, 83.512, 176.5295
61.500000, 83.491, 176.1331
62.200001, 83.496, 175.5831
63.000000, 83.469, 174.7906
64.000000, 83.424, 173.7234
65.000000, 83.393, 172.7562
66.000000, 83.345, 173.0002
67.000000, 83.362, 173.9677
68.000000, 83.355, 173.9076
69.000000, 83.313, 172.7809
70.000000, 83.286, 171.3697
71.000000, 83.263, 171.0855
72.000000, 83.298, 171.2215
73.000000, 83.260, 170.2896
74.000000, 83.170, 169.0317
75.000000, 83.152, 167.9747
76.199997, 83.118, 167.6833
77.500000, 83.003, 168.0946
78.800003, 82.867, 167.3891
80.000000, 82.834, 166.5736
81.199997, 82.811, 166.2706
82.500000, 82.767, 165.4802
83.800003, 82.775, 164.7860
85.000000, 82.737, 164.5186
86.199997, 82.631, 164.0719
87.500000, 82.552, 163.5042
88.500000, 82.482, 163.1294
90.000000, 82.375, 163.0855
91.199997, 82.349, 163.0145
92.500000, 82.260, 161.9716
93.800003, 82.118, 161.1746
95.000000, 82.032, 160.8120
96.199997, 81.991, 160.7018
97.500000, 81.949, 160.9215
98.800003, 81.885, 160.5703
100.000000, 81.807, 159.5804
101.500000, 81.664, 159.0639
103.000000, 81.580, 159.0816
104.400002, 81.555, 159.1795
106.000000, 81.431, 158.7096
107.500000, 81.331, 158.1507
109.000000, 81.295, 157.7751
110.599998, 81.208, 157.0500
112.000000, 81.104, 156.4943
113.800003, 80.978, 155.9625
115.000000, 80.893, 155.6321
117.199997, 80.724, 155.2289
118.000000, 80.670, 154.9909
120.599998, 80.516, 154.5468
122.000000, 80.405, 154.5214
124.099998, 80.251, 154.2676
125.000000, 80.190, 154.2445
126.500000, 80.091, 154.1512
128.000000, 79.977, 153.7206
131.500000, 79.707, 153.4152
132.000000, 79.673, 153.3862
134.000000, 79.532, 153.2615
136.000000, 79.394, 152.9741
138.000000, 79.229, 152.8512
140.000000, 79.077, 152.7763
143.000000, 78.884, 152.4619
145.000000, 78.765, 152.3702
147.500000, 78.562, 152.4418
150.000000, 78.376, 152.4070
152.500000, 78.210, 152.1227
155.000000, 78.055, 152.0271
157.500000, 77.864, 152.2708
160.000000, 77.664, 152.3658
162.500000, 77.487, 152.5826
165.000000, 77.310, 152.8120
167.500000, 77.105, 153.0449
170.000000, 76.905, 153.2568
172.500000, 76.721, 153.5148
175.000000, 76.547, 153.8426
177.500000, 76.360, 154.2450
180.000000, 76.174, 154.5731
182.500000, 75.993, 155.1027
185.000000, 75.814, 155.6938
187.500000, 75.635, 156.2033
190.000000, 75.449, 156.8531
192.500000, 75.268, 157.5327
195.000000, 75.098, 158.1703
197.500000, 74.935, 158.7814
200.000000, 74.773, 159.4506
203.000000, 74.582, 160.3986
206.000000, 74.400, 161.5723
209.000000, 74.220, 162.6450
212.000000, 74.045, 163.7231
214.000000, 73.933, 164.4419
218.000000, 73.704, 165.8619
220.000000, 73.601, 166.6510
224.000000, 73.450, 168.4614
227.000000, 73.350, 169.7667
230.000000, 73.227, 171.1277
233.000000, 73.082, 172.3666
236.000000, 72.951, 173.5982
240.000000, 72.822, 175.2769
243.000000, 72.737, 176.5216
247.000000, 72.610, 178.0709
250.000000, 72.524, 179.4606
254.000000, 72.445, -178.6257
258.000000, 72.399, -176.6873
262.000000, 72.357, -174.9063
265.000000, 72.330, -173.6599
269.000000, 72.300, -171.9469
272.000000, 72.283, -170.6181
276.000000, 72.268, -168.9183
280.000000, 72.264, -167.2964
285.000000, 72.272, -165.3562
290.000000, 72.307, -163.4615
295.000000, 72.347, -161.7173
300.000000, 72.398, -160.1852
304.000000, 72.458, -158.8934
307.000000, 72.505, -157.9358
311.000000, 72.563, -156.7070
315.000000, 72.621, -155.5202
320.000000, 72.691, -154.0943
325.000000, 72.762, -152.7697
330.000000, 72.836, -151.4713
335.000000, 72.910, -150.1863
340.000000, 72.997, -148.9975
345.000000, 73.070, -147.8749
350.000000, 73.156, -146.8416
355.000000, 73.253, -145.8391
360.000000, 73.327, -144.8893
365.000000, 73.401, -143.9911
370.000000, 73.481, -143.1496
375.000000, 73.561, -142.3771
382.000000, 73.666, -141.3002
387.000000, 73.735, -140.5056
395.000000, 73.842, -139.3058
400.000000, 73.904, -138.6026
406.000000, 73.979, -137.8050
412.000000, 74.049, -137.0446
418.000000, 74.118, -136.3439
425.000000, 74.198, -135.4920
431.000000, 74.262, -134.7678
437.000000, 74.327, -134.0805
444.000000, 74.393, -133.3331
450.000000, 74.442, -132.6876
455.000000, 74.487, -132.1627
462.000000, 74.553, -131.4846
468.000000, 74.602, -130.9378
475.000000, 74.655, -130.2563
482.000000, 74.712, -129.5613
487.000000, 74.754, -129.0945
494.000000, 74.812, -128.4543
500.000000, 74.858, -127.9211
508.000000, 74.918, -127.2051
515.000000, 74.967, -126.5760
522.000000, 75.009, -125.9660
530.000000, 75.061, -125.3171
538.000000, 75.109, -124.6087
545.000000, 75.151, -123.9678
552.000000, 75.191, -123.3429
560.000000, 75.233, -122.6484
570.000000, 75.276, -121.8503
580.000000, 75.325, -121.0200
590.000000, 75.377, -120.2061
600.000000, 75.428, -119.3467
608.000000, 75.463, -118.7072
615.000000, 75.488, -118.1479
622.000000, 75.512, -117.5791
630.000000, 75.543, -116.9741
640.000000, 75.574, -116.2628
650.000000, 75.581, -115.5370
660.000000, 75.568, -114.6933
670.000000, 75.560, -113.6382
680.000000, 75.579, -112.5177
690.000000, 75.626, -111.4465
700.000000, 75.682, -110.4548
710.000000, 75.730, -109.5508
720.000000, 75.771, -108.6888
730.000000, 75.816, -107.8078
740.000000, 75.859, -106.9444
750.000000, 75.899, -106.0697
762.000000, 75.947, -104.9936
775.000000, 76.005, -103.8310
788.000000, 76.066, -102.6404
800.000000, 76.126, -101.5661
812.000000, 76.186, -100.4588
825.000000, 76.249, -99.2595
838.000000, 76.317, -98.0823
850.000000, 76.379, -96.9857
862.000000, 76.446, -95.9111
875.000000, 76.519, -94.7462
885.000000, 76.582, -93.8482
900.000000, 76.687, -92.5178
912.000000, 76.773, -91.4824
925.000000, 76.874, -90.3689
938.000000, 76.976, -89.3179
950.000000, 77.069, -88.3538
962.000000, 77.165, -87.3794
975.000000, 77.272, -86.3318
988.000000, 77.387, -85.3450
1000.000000, 77.495, -84.4721
1015.000000, 77.624, -83.3882
1030.000000, 77.752, -82.3510
1044.000000, 77.882, -81.4468
1060.000000, 78.037, -80.4829
1075.000000, 78.180, -79.6252
1090.000000, 78.321, -78.8093
1106.000000, 78.469, -77.9788
1120.000000, 78.595, -77.3030
1138.000000, 78.757, -76.4852
1150.000000, 78.863, -75.9812
1172.000000, 79.047, -75.1430
1180.000000, 79.111, -74.8618
1206.000000, 79.317, -73.9632
1220.000000, 79.424, -73.4900
1241.000000, 79.574, -72.8041
1250.000000, 79.635, -72.5179
1265.000000, 79.734, -72.0748
1280.000000, 79.833, -71.6748
1315.000000, 80.059, -70.6981
1320.000000, 80.090, -70.5544
1340.000000, 80.211, -70.0004
1360.000000, 80.325, -69.4589
1380.000000, 80.434, -68.9064
1400.000000, 80.541, -68.3711
1430.000000, 80.690, -67.5322
1450.000000, 80.781, -66.9510
1475.000000, 80.894, -66.2540
1500.000000, 81.006, -65.5529
1525.000000, 81.114, -64.8419
1550.000000, 81.222, -64.1272
1575.000000, 81.331, -63.3993
1600.000000, 81.436, -62.6840
1625.000000, 81.539, -61.9471
1650.000000, 81.645, -61.2330
1675.000000, 81.754, -60.5323
1700.000000, 81.865, -59.8468
1725.000000, 81.978, -59.1628
1750.000000, 82.088, -58.4852
1775.000000, 82.196, -57.8154
1800.000000, 82.304, -57.1533
1825.000000, 82.414, -56.5228
1850.000000, 82.528, -55.9220
1875.000000, 82.645, -55.3562
1900.000000, 82.760, -54.8088
1925.000000, 82.878, -54.2765
1950.000000, 82.997, -53.7708
1975.000000, 83.115, -53.2951
2000.000000, 83.232, -52.8381
2030.000000, 83.371, -52.3028
2060.000000, 83.507, -51.7964
2090.000000, 83.637, -51.3192
2120.000000, 83.765, -50.8682
2140.000000, 83.851, -50.5778
2180.000000, 84.022, -50.0365
2200.000000, 84.109, -49.7848
2240.000000, 84.288, -49.3162
2270.000000, 84.428, -49.0193
2300.000000, 84.569, -48.7843
2330.000000, 84.710, -48.5987
2360.000000, 84.846, -48.4674
2400.000000, 85.020, -48.3838
2430.000000, 85.144, -48.3725
2470.000000, 85.303, -48.4223
2500.000000, 85.417, -48.5117
2540.000000, 85.558, -48.6795
2580.000000, 85.691, -48.9115
2620.000000, 85.814, -49.2313
2650.000000, 85.900, -49.5079
2690.000000, 86.003, -49.9200
2720.000000, 86.074, -50.2699
2760.000000, 86.161, -50.7977
2800.000000, 86.238, -51.3937
2850.000000, 86.322, -52.2559
2900.000000, 86.382, -53.1964
2950.000000, 86.409, -54.1914
3000.000000, 86.406, -55.2360
3040.000000, 86.378, -56.1281
3070.000000, 86.336, -56.8453
3110.000000, 86.232, -57.8583
3150.000000, 86.025, -58.6487
3200.000000, 85.717, -57.5882
3250.000000, 85.871, -55.8355
3300.000000, 86.027, -57.1990
3350.000000, 85.941, -58.6844
3400.000000, 85.783, -59.6223
3450.000000, 85.609, -60.2499
3500.000000, 85.426, -60.6818
3550.000000, 85.236, -60.9520
3600.000000, 85.045, -61.0869
3650.000000, 84.850, -61.1140
3700.000000, 84.654, -61.0575
3750.000000, 84.455, -60.9071
3820.000000, 84.174, -60.5492
3870.000000, 83.970, -60.2082
3950.000000, 83.653, -59.5112
4000.000000, 83.463, -58.9917
4060.000000, 83.238, -58.3304
4120.000000, 83.018, -57.6221
4180.000000, 82.800, -56.8838
4250.000000, 82.538, -56.0070
4310.000000, 82.304, -55.1931
4370.000000, 82.060, -54.2936
4440.000000, 81.771, -53.0724
4500.000000, 81.526, -51.8645
4550.000000, 81.330, -50.7754
4620.000000, 81.071, -49.1429
4680.000000, 80.865, -47.6620
4750.000000, 80.641, -45.8498
4820.000000, 80.433, -43.9727
4870.000000, 80.290, -42.6055
4940.000000, 80.100, -40.6512
5000.000000, 79.947, -38.9648
5080.000000, 79.754, -36.7010
5150.000000, 79.597, -34.6542
5220.000000, 79.455, -32.5566
5300.000000, 79.315, -30.1427
5380.000000, 79.193, -27.7476
5450.000000, 79.103, -25.6962
5520.000000, 79.026, -23.7075
5600.000000, 78.946, -21.5087
5700.000000, 78.846, -18.8355
5800.000000, 78.747, -16.2163
5900.000000, 78.651, -13.5982
6000.000000, 78.554, -10.9515
6080.000000, 78.481, -8.8217
6150.000000, 78.421, -6.9157
6220.000000, 78.368, -4.9679
6300.000000, 78.314, -2.7045
6400.000000, 78.263, 0.1630
6500.000000, 78.228, 3.0247
6600.000000, 78.206, 5.9051
6700.000000, 78.207, 8.8127
6800.000000, 78.233, 11.7054
6900.000000, 78.278, 14.6269
7000.000000, 78.353, 17.6068
7100.000000, 78.464, 20.5553
7200.000000, 78.612, 23.4416
7300.000000, 78.800, 26.1798
7400.000000, 79.029, 28.7598
7500.000000, 79.291, 31.1634
7620.000000, 79.645, 33.7553
7750.000000, 80.091, 36.1414
7880.000000, 80.596, 37.9293
8000.000000, 81.094, 38.9069
8120.000000, 81.601, 39.2254
8250.000000, 82.134, 38.8011
8380.000000, 82.627, 37.6164
8500.000000, 83.029, 35.8783
8620.000000, 83.360, 33.5462
8750.000000, 83.616, 30.4948
8850.000000, 83.726, 27.9091
9000.000000, 83.745, 23.8440
9120.000000, 83.630, 20.6363
9250.000000, 83.382, 17.5062
9380.000000, 83.051, 14.9781
9500.000000, 82.713, 13.0640
9620.000000, 82.317, 11.4384
9750.000000, 81.829, 10.5911
9880.000000, 81.417, 10.5948
10000.000000, 81.095, 10.4015
10150.000000, 80.630, 10.3944
10300.000000, 80.165, 11.2710
10440.000000, 79.799, 12.6931
10600.000000, 79.479, 14.7137
10750.000000, 79.279, 16.8213
10900.000000, 79.182, 18.9814
11060.000000, 79.193, 21.1996
11200.000000, 79.298, 22.9431
11380.000000, 79.570, 24.6765
11500.000000, 79.836, 25.3358
11720.000000, 80.459, 25.0273
11800.000000, 80.713, 24.2936
12060.000000, 81.501, 19.0771
12200.000000, 81.789, 14.4387
12410.000000, 81.841, 5.6662
12500.000000, 81.688, 1.6207
12650.000000, 81.190, -4.8620
12800.000000, 80.432, -10.4150
13150.000000, 78.130, -17.8564
13200.000000, 77.787, -18.2821
13400.000000, 76.459, -18.7275
13600.000000, 75.245, -17.6432
13800.000000, 74.179, -15.5184
14000.000000, 73.262, -12.7182
14300.000000, 72.134, -7.7803
14500.000000, 71.551, -4.2334
14750.000000, 71.018, 0.2507
15000.000000, 70.687, 4.4878
15250.000000, 70.540, 8.3381
15500.000000, 70.618, 11.9246
15750.000000, 71.082, 14.5632
16000.000000, 71.823, 12.8071
16250.000000, 71.996, 6.7824
16500.000000, 71.624, 2.3639
16750.000000, 71.308, -1.0951
17000.000000, 70.905, -5.7726
17250.000000, 70.179, -10.8472
17500.000000, 69.120, -15.0273
17750.000000, 67.820, -17.7114
18000.000000, 66.385, -18.8631
18250.000000, 64.897, -18.6499
18500.000000, 63.428, -17.7182
18750.000000, 61.997, -17.2787
19000.000000, 60.515, -17.7961
19250.000000, 58.944, -19.5539
19500.000000, 57.277, -23.5939
19750.000000, 55.551, -30.6572
