* Measurement data measured by REW V5.31.3
* Source: Input device not selected, no input selected, L, volume: no control
* Format: 256k Log Swept Sine, 1 sweep at -12.0 dBFS with no timing reference
* Dated: Dec 18, 2024 1:17:30 AM
* REW Settings:
*  C-weighting compensation: Off
*  Target level: 75.0 dB
* Note: ; 
* Measurement: Castor Pro Bass (DDUD W M)
* Smoothing: 1/24 octave
* Frequency Step: 1/48 octave
* Start Frequency: 20.300 Hz
*
* Freq(Hz), SPL(dB), Phase(degrees)
20.299999, 81.137, -136.3137
20.600000, 81.191, -136.4770
20.900000, 81.242, -136.7205
21.200001, 81.283, -137.0328
21.400000, 81.309, -137.2789
21.799999, 81.372, -137.8723
22.000000, 81.411, -138.2220
22.400000, 81.499, -139.0053
22.700001, 81.567, -139.6162
23.000000, 81.629, -140.1820
23.299999, 81.682, -140.6486
23.600000, 81.728, -140.9901
24.000000, 81.790, -141.2816
24.299999, 81.842, -141.4440
24.700001, 81.920, -141.7006
25.000000, 81.981, -141.9723
25.400000, 82.056, -142.4430
25.799999, 82.121, -142.9755
26.200001, 82.174, -143.4890
26.500000, 82.211, -143.8334
26.900000, 82.261, -144.2401
27.200001, 82.300, -144.5243
27.600000, 82.354, -144.9056
28.000000, 82.410, -145.3089
28.500000, 82.478, -145.8412
29.000000, 82.543, -146.3765
29.500000, 82.606, -146.8923
30.000000, 82.668, -147.3892
30.400000, 82.718, -147.7848
30.700001, 82.755, -148.0866
31.100000, 82.803, -148.4978
31.500000, 82.849, -148.9126
32.000000, 82.898, -149.4117
32.500000, 82.940, -149.8620
33.000000, 82.980, -150.2690
33.500000, 83.026, -150.6855
34.000000, 83.082, -151.1718
34.500000, 83.138, -151.7287
35.000000, 83.187, -152.2799
35.500000, 83.225, -152.7369
36.000000, 83.259, -153.0889
36.500000, 83.295, -153.4183
37.000000, 83.334, -153.8174
37.500000, 83.371, -154.3002
38.200001, 83.425, -154.9920
38.700001, 83.467, -155.4256
39.500000, 83.535, -156.0445
40.000000, 83.566, -156.4272
40.599998, 83.593, -156.8871
41.200001, 83.622, -157.3518
41.799999, 83.659, -157.8425
42.500000, 83.700, -158.4334
43.099998, 83.726, -158.9100
43.700001, 83.750, -159.3529
44.400002, 83.786, -159.8823
45.000000, 83.819, -160.3736
45.500000, 83.843, -160.7985
46.200001, 83.864, -161.3865
46.799999, 83.874, -161.8630
47.500000, 83.892, -162.3768
48.200001, 83.926, -162.8635
48.700001, 83.955, -163.2094
49.400002, 83.988, -163.6959
50.000000, 84.004, -164.1172
50.799999, 84.022, -164.7018
51.500000, 84.042, -165.2234
52.200001, 84.066, -165.7221
53.000000, 84.092, -166.2711
53.799999, 84.110, -166.8192
54.500000, 84.120, -167.2780
55.200001, 84.132, -167.7102
56.000000, 84.146, -168.2027
57.000000, 84.162, -168.8457
58.000000, 84.176, -169.4797
59.000000, 84.190, -170.1012
60.000000, 84.200, -170.7934
60.799999, 84.206, -171.3639
61.500000, 84.210, -171.8122
62.200001, 84.211, -172.2066
63.000000, 84.206, -172.6388
64.000000, 84.203, -173.2350
65.000000, 84.203, -173.8802
66.000000, 84.197, -174.4979
67.000000, 84.188, -175.1033
68.000000, 84.188, -175.6609
69.000000, 84.190, -176.1172
70.000000, 84.183, -176.5424
71.000000, 84.176, -177.1023
72.000000, 84.171, -177.7809
73.000000, 84.163, -178.3581
74.000000, 84.157, -178.8564
75.000000, 84.145, -179.3829
76.199997, 84.123, 179.9919
77.500000, 84.099, 179.2952
78.800003, 84.072, 178.6379
80.000000, 84.048, 178.1124
81.199997, 84.019, 177.5410
82.500000, 83.991, 176.8890
83.800003, 83.960, 176.2611
85.000000, 83.928, 175.7331
86.199997, 83.895, 175.1833
87.500000, 83.854, 174.5907
88.500000, 83.824, 174.1447
90.000000, 83.790, 173.4774
91.199997, 83.759, 172.9485
92.500000, 83.717, 172.3975
93.800003, 83.674, 171.8937
95.000000, 83.636, 171.4362
96.199997, 83.594, 170.9636
97.500000, 83.547, 170.4435
98.800003, 83.498, 169.9038
100.000000, 83.451, 169.4393
101.500000, 83.393, 168.9172
103.000000, 83.335, 168.4051
104.400002, 83.279, 167.8979
106.000000, 83.211, 167.3137
107.500000, 83.146, 166.7597
109.000000, 83.084, 166.2602
110.599998, 83.017, 165.7678
112.000000, 82.954, 165.3535
113.800003, 82.867, 164.7926
115.000000, 82.806, 164.4155
117.199997, 82.697, 163.7789
118.000000, 82.660, 163.5707
120.599998, 82.536, 162.8890
122.000000, 82.463, 162.4532
124.099998, 82.356, 161.8709
125.000000, 82.308, 161.6430
126.500000, 82.224, 161.2739
128.000000, 82.143, 160.8884
131.500000, 81.957, 160.1160
132.000000, 81.930, 160.0154
134.000000, 81.815, 159.6128
136.000000, 81.698, 159.1881
138.000000, 81.584, 158.7382
140.000000, 81.467, 158.3841
143.000000, 81.291, 157.9626
145.000000, 81.171, 157.6565
147.500000, 81.016, 157.2472
150.000000, 80.866, 156.8605
152.500000, 80.719, 156.5788
155.000000, 80.565, 156.2796
157.500000, 80.400, 155.9848
160.000000, 80.231, 155.7916
162.500000, 80.078, 155.5784
165.000000, 79.924, 155.3983
167.500000, 79.756, 155.4847
170.000000, 79.608, 155.5066
172.500000, 79.456, 155.3215
175.000000, 79.288, 155.1779
177.500000, 79.124, 155.1221
180.000000, 78.958, 155.1997
182.500000, 78.787, 155.3160
185.000000, 78.623, 155.4570
187.500000, 78.459, 155.6126
190.000000, 78.295, 155.7010
192.500000, 78.134, 155.7942
195.000000, 77.980, 156.0191
197.500000, 77.823, 156.3090
200.000000, 77.656, 156.6425
203.000000, 77.455, 157.0396
206.000000, 77.257, 157.4285
209.000000, 77.075, 157.9192
212.000000, 76.902, 158.4686
214.000000, 76.782, 158.8361
218.000000, 76.538, 159.6363
220.000000, 76.420, 160.0714
224.000000, 76.175, 160.8919
227.000000, 75.996, 161.4658
230.000000, 75.827, 162.2191
233.000000, 75.675, 163.1050
236.000000, 75.528, 163.9239
240.000000, 75.333, 165.0400
243.000000, 75.189, 165.8947
247.000000, 75.005, 167.2653
250.000000, 74.879, 168.3398
254.000000, 74.706, 169.6257
258.000000, 74.549, 171.0246
262.000000, 74.412, 172.4973
265.000000, 74.305, 173.5629
269.000000, 74.175, 174.9590
272.000000, 74.091, 175.9797
276.000000, 73.990, 177.4053
280.000000, 73.893, 178.8823
285.000000, 73.779, -179.2448
290.000000, 73.685, -177.3538
295.000000, 73.618, -175.4295
300.000000, 73.560, -173.6830
304.000000, 73.523, -172.3193
307.000000, 73.501, -171.3027
311.000000, 73.479, -169.9220
315.000000, 73.466, -168.5811
320.000000, 73.464, -166.8934
325.000000, 73.470, -165.2397
330.000000, 73.488, -163.7482
335.000000, 73.514, -162.2979
340.000000, 73.538, -160.7905
345.000000, 73.566, -159.3674
350.000000, 73.598, -158.0860
355.000000, 73.624, -156.7515
360.000000, 73.663, -155.4982
365.000000, 73.713, -154.2987
370.000000, 73.766, -153.1520
375.000000, 73.819, -152.0347
382.000000, 73.901, -150.5109
387.000000, 73.957, -149.4741
395.000000, 74.031, -147.9977
400.000000, 74.084, -147.0370
406.000000, 74.148, -145.9669
412.000000, 74.210, -145.0444
418.000000, 74.281, -144.1152
425.000000, 74.362, -143.0114
431.000000, 74.426, -142.1482
437.000000, 74.482, -141.3293
444.000000, 74.548, -140.3357
450.000000, 74.611, -139.5134
455.000000, 74.659, -138.8792
462.000000, 74.721, -138.0370
468.000000, 74.773, -137.3035
475.000000, 74.829, -136.4443
482.000000, 74.885, -135.6878
487.000000, 74.927, -135.1497
494.000000, 74.987, -134.4040
500.000000, 75.032, -133.7363
508.000000, 75.089, -132.9375
515.000000, 75.138, -132.2308
522.000000, 75.188, -131.4990
530.000000, 75.238, -130.6841
538.000000, 75.290, -129.8754
545.000000, 75.333, -129.1907
552.000000, 75.375, -128.5251
560.000000, 75.423, -127.7967
570.000000, 75.475, -126.8798
580.000000, 75.526, -125.9213
590.000000, 75.580, -124.9953
600.000000, 75.631, -124.1675
608.000000, 75.666, -123.4756
615.000000, 75.700, -122.8348
622.000000, 75.737, -122.2246
630.000000, 75.775, -121.5627
640.000000, 75.816, -120.7717
650.000000, 75.854, -120.0624
660.000000, 75.874, -119.4223
670.000000, 75.862, -118.6673
680.000000, 75.847, -117.5620
690.000000, 75.867, -116.3208
700.000000, 75.913, -115.1570
710.000000, 75.965, -114.1223
720.000000, 76.020, -113.2037
730.000000, 76.070, -112.3474
740.000000, 76.115, -111.4665
750.000000, 76.160, -110.5574
762.000000, 76.215, -109.4755
775.000000, 76.274, -108.2971
788.000000, 76.327, -107.1010
800.000000, 76.382, -105.9754
812.000000, 76.441, -104.8946
825.000000, 76.509, -103.7347
838.000000, 76.576, -102.6004
850.000000, 76.637, -101.5139
862.000000, 76.703, -100.3858
875.000000, 76.781, -99.1600
885.000000, 76.843, -98.2568
900.000000, 76.943, -96.9118
912.000000, 77.027, -95.8503
925.000000, 77.122, -94.7104
938.000000, 77.224, -93.5872
950.000000, 77.320, -92.6111
962.000000, 77.418, -91.6632
975.000000, 77.526, -90.6438
988.000000, 77.638, -89.6650
1000.000000, 77.744, -88.8076
1015.000000, 77.876, -87.7285
1030.000000, 78.013, -86.7007
1044.000000, 78.144, -85.7839
1060.000000, 78.296, -84.7940
1075.000000, 78.437, -83.9400
1090.000000, 78.576, -83.1233
1106.000000, 78.725, -82.3007
1120.000000, 78.855, -81.6384
1138.000000, 79.016, -80.8455
1150.000000, 79.121, -80.3500
1172.000000, 79.308, -79.4845
1180.000000, 79.373, -79.1937
1206.000000, 79.578, -78.3443
1220.000000, 79.684, -77.8901
1241.000000, 79.837, -77.2148
1250.000000, 79.900, -76.9489
1265.000000, 80.001, -76.5290
1280.000000, 80.099, -76.1057
1315.000000, 80.313, -75.1751
1320.000000, 80.342, -75.0399
1340.000000, 80.456, -74.4986
1360.000000, 80.567, -73.9942
1380.000000, 80.672, -73.5104
1400.000000, 80.769, -73.0002
1430.000000, 80.909, -72.2144
1450.000000, 80.998, -71.6744
1475.000000, 81.109, -70.9990
1500.000000, 81.222, -70.3522
1525.000000, 81.334, -69.7245
1550.000000, 81.439, -69.0764
1575.000000, 81.539, -68.4365
1600.000000, 81.635, -67.7947
1625.000000, 81.732, -67.1340
1650.000000, 81.829, -66.4505
1675.000000, 81.927, -65.7308
1700.000000, 82.026, -65.0257
1725.000000, 82.128, -64.3358
1750.000000, 82.235, -63.6451
1775.000000, 82.344, -62.9650
1800.000000, 82.454, -62.2933
1825.000000, 82.567, -61.6444
1850.000000, 82.681, -61.0174
1875.000000, 82.795, -60.4041
1900.000000, 82.911, -59.8189
1925.000000, 83.027, -59.2755
1950.000000, 83.141, -58.7487
1975.000000, 83.257, -58.2346
2000.000000, 83.375, -57.7474
2030.000000, 83.517, -57.2007
2060.000000, 83.659, -56.6816
2090.000000, 83.799, -56.2056
2120.000000, 83.941, -55.7786
2140.000000, 84.035, -55.5129
2180.000000, 84.224, -55.0216
2200.000000, 84.318, -54.8085
2240.000000, 84.503, -54.4332
2270.000000, 84.640, -54.1852
2300.000000, 84.776, -53.9914
2330.000000, 84.912, -53.8495
2360.000000, 85.047, -53.7436
2400.000000, 85.225, -53.6741
2430.000000, 85.356, -53.6774
2470.000000, 85.524, -53.7473
2500.000000, 85.648, -53.8569
2540.000000, 85.808, -54.0950
2580.000000, 85.959, -54.4185
2620.000000, 86.101, -54.8324
2650.000000, 86.202, -55.2063
2690.000000, 86.325, -55.7822
2720.000000, 86.411, -56.2627
2760.000000, 86.512, -56.9736
2800.000000, 86.598, -57.7514
2850.000000, 86.680, -58.8180
2900.000000, 86.734, -59.9604
2950.000000, 86.759, -61.1677
3000.000000, 86.748, -62.4578
3040.000000, 86.712, -63.5400
3070.000000, 86.665, -64.3809
3110.000000, 86.561, -65.5547
3150.000000, 86.371, -66.6998
3200.000000, 85.997, -66.6832
3250.000000, 85.987, -64.3539
3300.000000, 86.207, -65.2964
3350.000000, 86.134, -67.1904
3400.000000, 85.941, -68.4199
3450.000000, 85.723, -69.2332
3500.000000, 85.495, -69.7897
3550.000000, 85.262, -70.1706
3600.000000, 85.027, -70.4022
3650.000000, 84.786, -70.4885
3700.000000, 84.540, -70.4384
3750.000000, 84.296, -70.2789
3820.000000, 83.955, -69.8860
3870.000000, 83.712, -69.4818
3950.000000, 83.328, -68.6305
4000.000000, 83.094, -67.9848
4060.000000, 82.819, -67.1282
4120.000000, 82.549, -66.1841
4180.000000, 82.283, -65.1357
4250.000000, 81.981, -63.8025
4310.000000, 81.731, -62.5740
4370.000000, 81.488, -61.2840
4440.000000, 81.214, -59.6927
4500.000000, 80.986, -58.2530
4550.000000, 80.801, -57.0130
4620.000000, 80.552, -55.2116
4680.000000, 80.346, -53.6017
4750.000000, 80.113, -51.6575
4820.000000, 79.890, -49.6227
4870.000000, 79.740, -48.1445
4940.000000, 79.544, -46.0315
5000.000000, 79.388, -44.1543
5080.000000, 79.193, -41.6244
5150.000000, 79.040, -39.3976
5220.000000, 78.909, -37.1623
5300.000000, 78.777, -34.6076
5380.000000, 78.657, -32.0920
5450.000000, 78.567, -29.9046
5520.000000, 78.489, -27.7564
5600.000000, 78.412, -25.3529
5700.000000, 78.324, -22.4326
5800.000000, 78.246, -19.5676
5900.000000, 78.174, -16.7524
6000.000000, 78.110, -13.9277
6080.000000, 78.067, -11.6483
6150.000000, 78.035, -9.6902
6220.000000, 78.007, -7.7192
6300.000000, 77.981, -5.4321
6400.000000, 77.959, -2.5768
6500.000000, 77.955, 0.2297
6600.000000, 77.968, 3.0649
6700.000000, 77.994, 5.8937
6800.000000, 78.037, 8.6856
6900.000000, 78.096, 11.4917
7000.000000, 78.176, 14.3247
7100.000000, 78.277, 17.1588
7200.000000, 78.412, 20.0041
7300.000000, 78.584, 22.7788
7400.000000, 78.787, 25.4774
7500.000000, 79.024, 28.1125
7620.000000, 79.356, 31.1267
7750.000000, 79.786, 34.1228
7880.000000, 80.305, 36.7365
8000.000000, 80.858, 38.6485
8120.000000, 81.471, 39.8433
8250.000000, 82.177, 40.1859
8380.000000, 82.888, 39.4197
8500.000000, 83.515, 37.7176
8620.000000, 84.083, 35.0880
8750.000000, 84.593, 31.2617
8850.000000, 84.888, 27.7331
9000.000000, 85.131, 21.7796
9120.000000, 85.128, 16.7884
9250.000000, 84.926, 11.5568
9380.000000, 84.537, 6.9391
9500.000000, 84.069, 3.4411
9620.000000, 83.527, 0.6045
9750.000000, 82.860, -1.4270
9880.000000, 82.231, -2.1462
10000.000000, 81.750, -2.6317
10150.000000, 81.124, -3.1927
10300.000000, 80.488, -2.8249
10440.000000, 79.959, -1.8774
10600.000000, 79.440, -0.3523
10750.000000, 79.032, 1.3452
10900.000000, 78.714, 3.1866
11060.000000, 78.477, 5.1048
11200.000000, 78.340, 6.5728
11380.000000, 78.241, 8.0340
11500.000000, 78.209, 8.7031
11720.000000, 78.204, 9.1715
11800.000000, 78.209, 9.0575
12060.000000, 78.210, 7.5450
12200.000000, 78.171, 5.9971
12410.000000, 77.997, 2.6409
12500.000000, 77.852, 0.9028
12650.000000, 77.496, -2.1634
12800.000000, 76.987, -5.1570
13150.000000, 75.306, -10.0526
13200.000000, 75.028, -10.3971
13400.000000, 73.881, -10.7966
13600.000000, 72.758, -9.9130
13800.000000, 71.687, -8.0815
14000.000000, 70.677, -5.4572
14300.000000, 69.317, -0.2536
14500.000000, 68.533, 3.9305
14750.000000, 67.688, 9.8188
15000.000000, 66.990, 16.2545
15250.000000, 66.460, 23.2611
15500.000000, 66.171, 31.2739
15750.000000, 66.410, 40.7868
16000.000000, 67.590, 47.9918
16250.000000, 68.823, 46.5180
16500.000000, 69.179, 42.5564
16750.000000, 69.436, 41.6362
17000.000000, 70.214, 39.8680
17250.000000, 71.129, 32.7418
17500.000000, 71.448, 19.9023
17750.000000, 70.661, 4.5871
18000.000000, 68.708, -8.8297
18250.000000, 65.936, -17.4125
18500.000000, 62.818, -20.8719
18750.000000, 59.658, -21.0178
19000.000000, 56.471, -19.4468
19250.000000, 53.214, -16.2203
19500.000000, 49.923, -11.7866
19750.000000, 46.713, -6.8891
