* Measurement data measured by REW V5.31.3
* Source: Input device not selected, no input selected, L, volume: no control
* Format: 256k Log Swept Sine, 1 sweep at -12.0 dBFS with no timing reference
* Dated: Dec 17, 2024 11:53:05 PM
* REW Settings:
*  C-weighting compensation: Off
*  Target level: 75.0 dB
* Note: ; 
* Measurement: Castor Pro Bass (UDDD W M)
* Smoothing: 1/24 octave
* Frequency Step: 1/48 octave
* Start Frequency: 20.300 Hz
*
* Freq(Hz), SPL(dB), Phase(degrees)
20.299999, 84.202, -146.7316
20.600000, 84.242, -147.2153
20.900000, 84.274, -147.7162
21.200001, 84.298, -148.1368
21.400000, 84.313, -148.3634
21.799999, 84.357, -148.7195
22.000000, 84.390, -148.8781
22.400000, 84.475, -149.2328
22.700001, 84.546, -149.5682
23.000000, 84.613, -149.9653
23.299999, 84.668, -150.4000
23.600000, 84.707, -150.8385
24.000000, 84.737, -151.3852
24.299999, 84.750, -151.7575
24.700001, 84.769, -152.2268
25.000000, 84.790, -152.5840
25.400000, 84.829, -153.0913
25.799999, 84.878, -153.6248
26.200001, 84.930, -154.1448
26.500000, 84.969, -154.5023
26.900000, 85.017, -154.9274
27.200001, 85.051, -155.2206
27.600000, 85.090, -155.6111
28.000000, 85.121, -156.0332
28.500000, 85.150, -156.6149
29.000000, 85.172, -157.2164
29.500000, 85.198, -157.7894
30.000000, 85.230, -158.3168
30.400000, 85.260, -158.7128
30.700001, 85.282, -159.0008
31.100000, 85.313, -159.3802
31.500000, 85.344, -159.7646
32.000000, 85.382, -160.2673
32.500000, 85.418, -160.7952
33.000000, 85.445, -161.3195
33.500000, 85.464, -161.8011
34.000000, 85.479, -162.2256
34.500000, 85.496, -162.6180
35.000000, 85.519, -163.0223
35.500000, 85.545, -163.4723
36.000000, 85.567, -163.9706
36.500000, 85.582, -164.4875
37.000000, 85.592, -164.9804
37.500000, 85.604, -165.4232
38.200001, 85.637, -165.9830
38.700001, 85.669, -166.3755
39.500000, 85.708, -167.0032
40.000000, 85.719, -167.3908
40.599998, 85.726, -167.8826
41.200001, 85.731, -168.4218
41.799999, 85.740, -168.9551
42.500000, 85.760, -169.4957
43.099998, 85.780, -169.9229
43.700001, 85.791, -170.3774
44.400002, 85.788, -170.9235
45.000000, 85.788, -171.3680
45.500000, 85.797, -171.7355
46.200001, 85.812, -172.2729
46.799999, 85.816, -172.7210
47.500000, 85.811, -173.1666
48.200001, 85.812, -173.5386
48.700001, 85.816, -173.7979
49.400002, 85.821, -174.2010
50.000000, 85.818, -174.5968
50.799999, 85.812, -175.1570
51.500000, 85.823, -175.6411
52.200001, 85.847, -176.1472
53.000000, 85.854, -176.7622
53.799999, 85.831, -177.3180
54.500000, 85.815, -177.7196
55.200001, 85.817, -178.0992
56.000000, 85.819, -178.5689
57.000000, 85.785, -179.2085
58.000000, 85.756, -179.8310
59.000000, 85.778, 179.6093
60.000000, 85.790, 179.1369
60.799999, 85.770, 178.7668
61.500000, 85.747, 178.3825
62.200001, 85.731, 177.9728
63.000000, 85.725, 177.5380
64.000000, 85.714, 176.9955
65.000000, 85.689, 176.4522
66.000000, 85.670, 175.9587
67.000000, 85.649, 175.4591
68.000000, 85.614, 174.9492
69.000000, 85.580, 174.4816
70.000000, 85.555, 174.0767
71.000000, 85.533, 173.6132
72.000000, 85.505, 173.0820
73.000000, 85.480, 172.6166
74.000000, 85.466, 172.1912
75.000000, 85.451, 171.7725
76.199997, 85.421, 171.2771
77.500000, 85.375, 170.7070
78.800003, 85.336, 170.1008
80.000000, 85.305, 169.5576
81.199997, 85.265, 169.1202
82.500000, 85.216, 168.6420
83.800003, 85.166, 168.0655
85.000000, 85.122, 167.5795
86.199997, 85.079, 167.1335
87.500000, 85.035, 166.6587
88.500000, 85.002, 166.3231
90.000000, 84.944, 165.7809
91.199997, 84.894, 165.2988
92.500000, 84.846, 164.7900
93.800003, 84.796, 164.3200
95.000000, 84.752, 163.9266
96.199997, 84.707, 163.5343
97.500000, 84.649, 163.0826
98.800003, 84.587, 162.6352
100.000000, 84.532, 162.2602
101.500000, 84.469, 161.8379
103.000000, 84.405, 161.3853
104.400002, 84.343, 160.9523
106.000000, 84.265, 160.4574
107.500000, 84.194, 160.0008
109.000000, 84.129, 159.6047
110.599998, 84.057, 159.1779
112.000000, 83.990, 158.7625
113.800003, 83.897, 158.2705
115.000000, 83.834, 157.9773
117.199997, 83.722, 157.4807
118.000000, 83.684, 157.3059
120.599998, 83.553, 156.7022
122.000000, 83.478, 156.3442
124.099998, 83.364, 155.8631
125.000000, 83.317, 155.6661
126.500000, 83.238, 155.3212
128.000000, 83.156, 154.9957
131.500000, 82.967, 154.3333
132.000000, 82.939, 154.2458
134.000000, 82.828, 153.8911
136.000000, 82.715, 153.5369
138.000000, 82.603, 153.1737
140.000000, 82.484, 152.8590
143.000000, 82.316, 152.4999
145.000000, 82.209, 152.2844
147.500000, 82.063, 151.9862
150.000000, 81.908, 151.6734
152.500000, 81.757, 151.4368
155.000000, 81.601, 151.1810
157.500000, 81.443, 150.9346
160.000000, 81.282, 150.7189
162.500000, 81.134, 150.5329
165.000000, 80.988, 150.4395
167.500000, 80.840, 150.2884
170.000000, 80.687, 150.1769
172.500000, 80.533, 150.1663
175.000000, 80.376, 150.1933
177.500000, 80.213, 150.1693
180.000000, 80.060, 150.2036
182.500000, 79.902, 150.2674
185.000000, 79.738, 150.2843
187.500000, 79.579, 150.3662
190.000000, 79.425, 150.5742
192.500000, 79.274, 150.7544
195.000000, 79.117, 150.9202
197.500000, 78.957, 151.0845
200.000000, 78.809, 151.2802
203.000000, 78.632, 151.5996
206.000000, 78.447, 151.9355
209.000000, 78.263, 152.3644
212.000000, 78.085, 152.8326
214.000000, 77.968, 153.0809
218.000000, 77.729, 153.6212
220.000000, 77.610, 153.9489
224.000000, 77.372, 154.6384
227.000000, 77.183, 155.1935
230.000000, 77.015, 155.8504
233.000000, 76.873, 156.5889
236.000000, 76.726, 157.2946
240.000000, 76.517, 158.2970
243.000000, 76.361, 159.1442
247.000000, 76.170, 160.2726
250.000000, 76.028, 160.9594
254.000000, 75.839, 161.9797
258.000000, 75.670, 163.1720
262.000000, 75.497, 164.3860
265.000000, 75.370, 165.3366
269.000000, 75.219, 166.6519
272.000000, 75.111, 167.6476
276.000000, 74.972, 168.8904
280.000000, 74.850, 170.1577
285.000000, 74.709, 171.8000
290.000000, 74.586, 173.5532
295.000000, 74.473, 175.2236
300.000000, 74.369, 176.9382
304.000000, 74.294, 178.3681
307.000000, 74.245, 179.4110
311.000000, 74.186, -179.2277
315.000000, 74.128, -177.9179
320.000000, 74.061, -176.3018
325.000000, 74.012, -174.6767
330.000000, 73.989, -173.1102
335.000000, 73.967, -171.6137
340.000000, 73.947, -170.0760
345.000000, 73.934, -168.5485
350.000000, 73.934, -167.1021
355.000000, 73.947, -165.7317
360.000000, 73.955, -164.3787
365.000000, 73.971, -163.0058
370.000000, 73.987, -161.7150
375.000000, 74.006, -160.4531
382.000000, 74.062, -158.7302
387.000000, 74.100, -157.5643
395.000000, 74.154, -155.8902
400.000000, 74.197, -154.8409
406.000000, 74.240, -153.5688
412.000000, 74.278, -152.3790
418.000000, 74.317, -151.2462
425.000000, 74.373, -149.9135
431.000000, 74.429, -148.7965
437.000000, 74.487, -147.8127
444.000000, 74.545, -146.6771
450.000000, 74.589, -145.7094
455.000000, 74.628, -144.8991
462.000000, 74.690, -143.8046
468.000000, 74.750, -142.9087
475.000000, 74.821, -141.8900
482.000000, 74.885, -141.0127
487.000000, 74.927, -140.4484
494.000000, 74.976, -139.6071
500.000000, 75.016, -138.8679
508.000000, 75.076, -137.8874
515.000000, 75.127, -137.0398
522.000000, 75.170, -136.2013
530.000000, 75.216, -135.3113
538.000000, 75.260, -134.5322
545.000000, 75.299, -133.8626
552.000000, 75.342, -133.0880
560.000000, 75.390, -132.1866
570.000000, 75.440, -131.1533
580.000000, 75.488, -130.1585
590.000000, 75.547, -129.1532
600.000000, 75.599, -128.2196
608.000000, 75.636, -127.4757
615.000000, 75.668, -126.8172
622.000000, 75.699, -126.1704
630.000000, 75.736, -125.4550
640.000000, 75.777, -124.6022
650.000000, 75.806, -123.8589
660.000000, 75.810, -123.0591
670.000000, 75.806, -121.9679
680.000000, 75.828, -120.6968
690.000000, 75.872, -119.5207
700.000000, 75.922, -118.4782
710.000000, 75.970, -117.4814
720.000000, 76.020, -116.5409
730.000000, 76.071, -115.5916
740.000000, 76.117, -114.6339
750.000000, 76.157, -113.6964
762.000000, 76.210, -112.5302
775.000000, 76.270, -111.3091
788.000000, 76.331, -110.1340
800.000000, 76.389, -108.9919
812.000000, 76.448, -107.8543
825.000000, 76.517, -106.6447
838.000000, 76.586, -105.4370
850.000000, 76.648, -104.3501
862.000000, 76.716, -103.2323
875.000000, 76.799, -101.9623
885.000000, 76.867, -101.0357
900.000000, 76.969, -99.6894
912.000000, 77.047, -98.6126
925.000000, 77.137, -97.4578
938.000000, 77.232, -96.3335
950.000000, 77.327, -95.3271
962.000000, 77.428, -94.3218
975.000000, 77.542, -93.2386
988.000000, 77.658, -92.1671
1000.000000, 77.764, -91.2399
1015.000000, 77.900, -90.1937
1030.000000, 78.039, -89.1666
1044.000000, 78.169, -88.2374
1060.000000, 78.322, -87.2053
1075.000000, 78.465, -86.2999
1090.000000, 78.605, -85.4865
1106.000000, 78.754, -84.6910
1120.000000, 78.883, -84.0028
1138.000000, 79.046, -83.1633
1150.000000, 79.150, -82.6698
1172.000000, 79.338, -81.7996
1180.000000, 79.405, -81.4747
1206.000000, 79.618, -80.5323
1220.000000, 79.728, -80.0727
1241.000000, 79.877, -79.4391
1250.000000, 79.938, -79.1741
1265.000000, 80.034, -78.7430
1280.000000, 80.125, -78.3358
1315.000000, 80.328, -77.3021
1320.000000, 80.357, -77.1537
1340.000000, 80.465, -76.5935
1360.000000, 80.568, -76.0145
1380.000000, 80.671, -75.4427
1400.000000, 80.771, -74.8853
1430.000000, 80.914, -74.0091
1450.000000, 81.010, -73.4278
1475.000000, 81.127, -72.7159
1500.000000, 81.238, -72.0275
1525.000000, 81.346, -71.2949
1550.000000, 81.450, -70.5624
1575.000000, 81.554, -69.8276
1600.000000, 81.660, -69.1167
1625.000000, 81.767, -68.3938
1650.000000, 81.872, -67.6681
1675.000000, 81.976, -66.9370
1700.000000, 82.079, -66.2205
1725.000000, 82.187, -65.5145
1750.000000, 82.294, -64.8208
1775.000000, 82.404, -64.1390
1800.000000, 82.518, -63.4558
1825.000000, 82.631, -62.7864
1850.000000, 82.745, -62.1430
1875.000000, 82.860, -61.5119
1900.000000, 82.975, -60.9049
1925.000000, 83.094, -60.3250
1950.000000, 83.214, -59.7732
1975.000000, 83.335, -59.2286
2000.000000, 83.454, -58.6965
2030.000000, 83.599, -58.1200
2060.000000, 83.744, -57.5977
2090.000000, 83.890, -57.0998
2120.000000, 84.036, -56.6457
2140.000000, 84.132, -56.3719
2180.000000, 84.321, -55.8778
2200.000000, 84.417, -55.6445
2240.000000, 84.609, -55.2254
2270.000000, 84.750, -54.9577
2300.000000, 84.892, -54.7485
2330.000000, 85.033, -54.5805
2360.000000, 85.171, -54.4558
2400.000000, 85.351, -54.3640
2430.000000, 85.485, -54.3524
2470.000000, 85.661, -54.3952
2500.000000, 85.790, -54.5038
2540.000000, 85.956, -54.7466
2580.000000, 86.113, -55.0727
2620.000000, 86.261, -55.4782
2650.000000, 86.366, -55.8524
2690.000000, 86.494, -56.4232
2720.000000, 86.581, -56.8999
2760.000000, 86.685, -57.6119
2800.000000, 86.771, -58.4254
2850.000000, 86.858, -59.5559
2900.000000, 86.912, -60.7611
2950.000000, 86.934, -62.0448
3000.000000, 86.920, -63.3970
3040.000000, 86.880, -64.5388
3070.000000, 86.827, -65.4337
3110.000000, 86.706, -66.6808
3150.000000, 86.482, -67.7415
3200.000000, 86.125, -67.0373
3250.000000, 86.237, -65.1693
3300.000000, 86.396, -66.7586
3350.000000, 86.281, -68.6096
3400.000000, 86.077, -69.8069
3450.000000, 85.854, -70.6238
3500.000000, 85.621, -71.1944
3550.000000, 85.382, -71.5879
3600.000000, 85.139, -71.8424
3650.000000, 84.892, -71.9713
3700.000000, 84.643, -71.9429
3750.000000, 84.394, -71.7924
3820.000000, 84.045, -71.3931
3870.000000, 83.799, -70.9926
3950.000000, 83.413, -70.1640
4000.000000, 83.177, -69.5356
4060.000000, 82.898, -68.7007
4120.000000, 82.626, -67.7539
4180.000000, 82.360, -66.7172
4250.000000, 82.056, -65.4065
4310.000000, 81.804, -64.2143
4370.000000, 81.560, -62.9381
4440.000000, 81.287, -61.3443
4500.000000, 81.059, -59.9110
4550.000000, 80.876, -58.6710
4620.000000, 80.630, -56.8632
4680.000000, 80.426, -55.2929
4750.000000, 80.195, -53.4202
4820.000000, 79.979, -51.4467
4870.000000, 79.835, -49.9762
4940.000000, 79.644, -47.8768
5000.000000, 79.490, -46.0053
5080.000000, 79.304, -43.4254
5150.000000, 79.160, -41.1783
5220.000000, 79.028, -38.9252
5300.000000, 78.898, -36.3217
5380.000000, 78.791, -33.7993
5450.000000, 78.710, -31.6026
5520.000000, 78.640, -29.4100
5600.000000, 78.565, -26.9834
5700.000000, 78.483, -24.0279
5800.000000, 78.416, -21.0582
5900.000000, 78.356, -18.1452
6000.000000, 78.301, -15.2231
6080.000000, 78.266, -12.8787
6150.000000, 78.239, -10.8281
6220.000000, 78.216, -8.7872
6300.000000, 78.200, -6.4857
6400.000000, 78.203, -3.5938
6500.000000, 78.217, -0.6762
6600.000000, 78.240, 2.2335
6700.000000, 78.279, 5.1272
6800.000000, 78.342, 8.0277
6900.000000, 78.428, 10.9175
7000.000000, 78.536, 13.7688
7100.000000, 78.670, 16.6101
7200.000000, 78.831, 19.4089
7300.000000, 79.027, 22.1268
7400.000000, 79.259, 24.7681
7500.000000, 79.531, 27.3011
7620.000000, 79.909, 30.1506
7750.000000, 80.394, 32.8698
7880.000000, 80.953, 35.0307
8000.000000, 81.532, 36.3555
8120.000000, 82.153, 36.9055
8250.000000, 82.839, 36.4477
8380.000000, 83.494, 34.8401
8500.000000, 84.029, 32.3381
8620.000000, 84.461, 28.9758
8750.000000, 84.783, 24.5919
8850.000000, 84.910, 20.8746
9000.000000, 84.887, 15.0570
9120.000000, 84.683, 10.5339
9250.000000, 84.291, 6.1730
9380.000000, 83.772, 2.6997
9500.000000, 83.240, 0.2670
9620.000000, 82.659, -1.5989
9750.000000, 81.985, -2.5404
9880.000000, 81.409, -2.4264
10000.000000, 80.963, -2.4665
10150.000000, 80.362, -2.3422
10300.000000, 79.776, -1.4010
10440.000000, 79.294, -0.0309
10600.000000, 78.824, 1.9076
10750.000000, 78.472, 3.9521
10900.000000, 78.208, 6.0622
11060.000000, 78.010, 8.1590
11200.000000, 77.897, 9.7737
11380.000000, 77.829, 11.5714
11500.000000, 77.827, 12.4948
11720.000000, 77.888, 13.3077
11800.000000, 77.921, 13.3058
12060.000000, 78.021, 12.1436
12200.000000, 78.039, 10.6998
12410.000000, 77.941, 7.4651
12500.000000, 77.830, 5.7672
12650.000000, 77.532, 2.7121
12800.000000, 77.080, -0.2848
13150.000000, 75.527, -5.1491
13200.000000, 75.270, -5.5281
13400.000000, 74.213, -6.2353
13600.000000, 73.146, -5.7286
13800.000000, 72.114, -4.1607
14000.000000, 71.148, -1.6545
14300.000000, 69.836, 3.4434
14500.000000, 69.114, 7.6020
14750.000000, 68.362, 13.2299
15000.000000, 67.772, 19.2082
15250.000000, 67.347, 25.6730
15500.000000, 67.158, 33.3220
15750.000000, 67.590, 42.2429
16000.000000, 68.923, 47.4527
16250.000000, 70.021, 44.4167
16500.000000, 70.406, 40.9879
16750.000000, 71.023, 38.9185
17000.000000, 71.935, 32.8103
17250.000000, 72.438, 21.0268
17500.000000, 71.950, 6.0374
17750.000000, 70.305, -7.8698
18000.000000, 67.786, -17.4161
18250.000000, 64.842, -21.8289
18500.000000, 61.817, -22.1293
18750.000000, 58.841, -20.4239
19000.000000, 55.837, -17.5652
19250.000000, 52.773, -13.3482
19500.000000, 49.641, -8.2401
19750.000000, 46.605, -3.0357
