* Measurement data measured by REW V5.31.3
* Source: Input device not selected, no input selected, L, volume: no control
* Format: 256k Log Swept Sine, 1 sweep at -12.0 dBFS with no timing reference
* Dated: Dec 18, 2024 1:50:00 AM
* REW Settings:
*  C-weighting compensation: Off
*  Target level: 75.0 dB
* Note: 
* Measurement: Castor Pro Bass (UDDD S M)
* Smoothing: 1/24 octave
* Frequency Step: 1/48 octave
* Start Frequency: 20.300 Hz
*
* Freq(Hz), SPL(dB), Phase(degrees)
20.299999, 82.907, -146.9084
20.600000, 83.374, -148.0085
20.900000, 83.861, -149.3226
21.200001, 84.208, -150.4681
21.400000, 84.336, -150.9988
21.799999, 84.368, -151.2856
22.000000, 84.311, -151.0308
22.400000, 84.181, -150.0023
22.700001, 84.159, -149.2152
23.000000, 84.242, -148.8488
23.299999, 84.407, -149.1033
23.600000, 84.596, -149.9020
24.000000, 84.781, -151.3316
24.299999, 84.821, -152.2624
24.700001, 84.741, -152.8848
25.000000, 84.625, -152.8254
25.400000, 84.502, -152.3403
25.799999, 84.513, -152.0138
26.200001, 84.678, -152.3463
26.500000, 84.862, -153.0082
26.900000, 85.099, -154.0420
27.200001, 85.224, -154.6324
27.600000, 85.287, -154.9569
28.000000, 85.236, -154.9050
28.500000, 85.065, -155.1011
29.000000, 84.852, -156.4725
29.500000, 84.686, -158.8694
30.000000, 84.651, -160.9111
30.400000, 84.747, -161.3938
30.700001, 84.879, -161.0480
31.100000, 85.091, -160.0826
31.500000, 85.270, -159.2444
32.000000, 85.356, -159.1188
32.500000, 85.290, -160.0804
33.000000, 85.199, -161.4757
33.500000, 85.225, -162.5062
34.000000, 85.386, -162.8482
34.500000, 85.563, -162.7723
35.000000, 85.623, -162.7172
35.500000, 85.521, -162.9342
36.000000, 85.332, -163.4036
36.500000, 85.188, -163.9367
37.000000, 85.185, -164.3935
37.500000, 85.294, -164.8229
38.200001, 85.432, -165.5724
38.700001, 85.434, -166.1585
39.500000, 85.399, -166.9082
40.000000, 85.455, -167.3142
40.599998, 85.554, -167.7599
41.200001, 85.575, -167.8385
41.799999, 85.527, -167.4046
42.500000, 85.515, -167.1059
43.099998, 85.557, -167.8254
43.700001, 85.563, -169.1395
44.400002, 85.513, -170.3684
45.000000, 85.500, -171.0658
45.500000, 85.526, -171.7428
46.200001, 85.549, -172.7787
46.799999, 85.529, -173.1218
47.500000, 85.525, -172.6808
48.200001, 85.588, -172.3660
48.700001, 85.641, -172.7327
49.400002, 85.672, -173.8088
50.000000, 85.664, -174.6750
50.799999, 85.649, -175.5160
51.500000, 85.631, -176.2449
52.200001, 85.607, -176.8416
53.000000, 85.608, -176.9491
53.799999, 85.637, -176.8603
54.500000, 85.636, -177.2853
55.200001, 85.609, -178.1602
56.000000, 85.597, -179.0209
57.000000, 85.585, -179.2006
58.000000, 85.495, -179.1260
59.000000, 85.408, -179.6886
60.000000, 85.397, 179.6575
60.799999, 85.428, 179.3627
61.500000, 85.472, 178.9847
62.200001, 85.516, 178.4625
63.000000, 85.539, 178.0888
64.000000, 85.521, 177.9293
65.000000, 85.461, 177.2585
66.000000, 85.416, 176.4451
67.000000, 85.441, 175.8476
68.000000, 85.435, 174.9921
69.000000, 85.383, 174.2850
70.000000, 85.348, 174.0172
71.000000, 85.312, 173.8474
72.000000, 85.296, 173.5947
73.000000, 85.310, 173.2749
74.000000, 85.290, 172.7841
75.000000, 85.246, 172.1058
76.199997, 85.237, 171.2479
77.500000, 85.215, 170.6707
78.800003, 85.177, 170.5235
80.000000, 85.124, 170.2394
81.199997, 85.080, 169.7159
82.500000, 85.049, 169.0399
83.800003, 84.969, 168.6012
85.000000, 84.898, 168.1755
86.199997, 84.860, 167.6840
87.500000, 84.848, 167.0751
88.500000, 84.833, 166.5951
90.000000, 84.756, 166.0549
91.199997, 84.687, 165.6615
92.500000, 84.648, 165.2563
93.800003, 84.598, 164.8436
95.000000, 84.538, 164.3256
96.199997, 84.479, 163.7595
97.500000, 84.434, 163.2009
98.800003, 84.418, 162.8141
100.000000, 84.383, 162.5340
101.500000, 84.286, 162.0050
103.000000, 84.192, 161.3915
104.400002, 84.138, 161.0024
106.000000, 84.074, 160.6846
107.500000, 83.996, 160.3699
109.000000, 83.904, 159.9700
110.599998, 83.821, 159.4608
112.000000, 83.767, 159.0034
113.800003, 83.693, 158.5944
115.000000, 83.635, 158.3282
117.199997, 83.495, 157.7766
118.000000, 83.447, 157.6129
120.599998, 83.303, 156.9351
122.000000, 83.238, 156.6098
124.099998, 83.164, 156.1119
125.000000, 83.120, 155.8952
126.500000, 83.029, 155.5351
128.000000, 82.942, 155.1482
131.500000, 82.754, 154.5962
132.000000, 82.725, 154.5557
134.000000, 82.619, 154.3469
136.000000, 82.515, 153.9267
138.000000, 82.400, 153.4457
140.000000, 82.287, 153.1533
143.000000, 82.119, 152.8278
145.000000, 81.997, 152.6683
147.500000, 81.824, 152.2876
150.000000, 81.669, 151.9825
152.500000, 81.551, 151.7959
155.000000, 81.419, 151.4846
157.500000, 81.271, 151.1696
160.000000, 81.100, 150.9000
162.500000, 80.918, 150.6954
165.000000, 80.776, 150.5844
167.500000, 80.640, 150.6752
170.000000, 80.487, 150.6758
172.500000, 80.313, 150.5641
175.000000, 80.152, 150.5433
177.500000, 80.000, 150.6187
180.000000, 79.841, 150.6356
182.500000, 79.666, 150.6823
185.000000, 79.498, 150.6956
187.500000, 79.352, 150.7148
190.000000, 79.201, 150.7844
192.500000, 79.045, 150.9531
195.000000, 78.894, 151.1823
197.500000, 78.742, 151.4179
200.000000, 78.585, 151.6738
203.000000, 78.399, 151.9865
206.000000, 78.222, 152.2047
209.000000, 78.059, 152.5392
212.000000, 77.882, 152.9495
214.000000, 77.757, 153.2162
218.000000, 77.504, 153.9317
220.000000, 77.384, 154.3215
224.000000, 77.153, 155.2248
227.000000, 76.973, 155.7194
230.000000, 76.806, 156.3698
233.000000, 76.650, 156.9811
236.000000, 76.492, 157.5651
240.000000, 76.287, 158.4986
243.000000, 76.130, 159.2086
247.000000, 75.911, 160.0583
250.000000, 75.771, 161.0153
254.000000, 75.605, 162.3475
258.000000, 75.438, 163.5614
262.000000, 75.265, 164.8344
265.000000, 75.135, 165.8222
269.000000, 74.973, 167.1402
272.000000, 74.860, 168.1016
276.000000, 74.724, 169.4168
280.000000, 74.591, 170.7589
285.000000, 74.437, 172.4815
290.000000, 74.299, 174.2382
295.000000, 74.195, 175.9780
300.000000, 74.099, 177.6956
304.000000, 74.012, 179.1256
307.000000, 73.951, -179.7635
311.000000, 73.892, -178.3793
315.000000, 73.848, -177.1463
320.000000, 73.789, -175.5971
325.000000, 73.746, -173.8529
330.000000, 73.727, -172.1048
335.000000, 73.711, -170.4231
340.000000, 73.696, -168.8966
345.000000, 73.690, -167.3499
350.000000, 73.689, -165.8634
355.000000, 73.690, -164.4586
360.000000, 73.696, -163.0289
365.000000, 73.714, -161.6044
370.000000, 73.747, -160.3556
375.000000, 73.786, -159.1023
382.000000, 73.829, -157.4131
387.000000, 73.863, -156.2985
395.000000, 73.919, -154.4398
400.000000, 73.958, -153.3196
406.000000, 74.014, -152.0804
412.000000, 74.071, -150.8808
418.000000, 74.123, -149.6997
425.000000, 74.191, -148.4167
431.000000, 74.256, -147.4830
437.000000, 74.304, -146.5126
444.000000, 74.358, -145.3292
450.000000, 74.414, -144.3969
455.000000, 74.460, -143.6584
462.000000, 74.514, -142.6218
468.000000, 74.560, -141.7659
475.000000, 74.623, -140.8142
482.000000, 74.684, -139.8807
487.000000, 74.721, -139.2377
494.000000, 74.771, -138.3232
500.000000, 74.821, -137.5676
508.000000, 74.893, -136.6106
515.000000, 74.944, -135.7691
522.000000, 74.987, -134.9480
530.000000, 75.039, -134.0400
538.000000, 75.094, -133.1438
545.000000, 75.135, -132.3721
552.000000, 75.172, -131.6220
560.000000, 75.223, -130.7859
570.000000, 75.275, -129.7186
580.000000, 75.329, -128.7059
590.000000, 75.384, -127.7777
600.000000, 75.433, -126.8115
608.000000, 75.478, -126.0278
615.000000, 75.518, -125.3440
622.000000, 75.554, -124.6670
630.000000, 75.586, -123.9398
640.000000, 75.621, -123.1662
650.000000, 75.651, -122.4019
660.000000, 75.658, -121.4801
670.000000, 75.657, -120.3000
680.000000, 75.683, -119.0362
690.000000, 75.733, -117.8549
700.000000, 75.789, -116.7835
710.000000, 75.840, -115.8322
720.000000, 75.888, -114.9006
730.000000, 75.937, -113.9348
740.000000, 75.986, -112.9817
750.000000, 76.028, -112.0657
762.000000, 76.076, -110.9095
775.000000, 76.132, -109.6654
788.000000, 76.192, -108.4157
800.000000, 76.249, -107.2497
812.000000, 76.312, -106.1044
825.000000, 76.382, -104.8983
838.000000, 76.457, -103.6460
850.000000, 76.530, -102.4800
862.000000, 76.597, -101.3321
875.000000, 76.673, -100.1362
885.000000, 76.739, -99.2196
900.000000, 76.836, -97.8419
912.000000, 76.918, -96.7571
925.000000, 77.014, -95.5548
938.000000, 77.119, -94.3753
950.000000, 77.221, -93.3432
962.000000, 77.323, -92.3230
975.000000, 77.434, -91.2380
988.000000, 77.543, -90.2147
1000.000000, 77.648, -89.2904
1015.000000, 77.795, -88.1445
1030.000000, 77.940, -87.1046
1044.000000, 78.071, -86.1663
1060.000000, 78.222, -85.1701
1075.000000, 78.362, -84.2700
1090.000000, 78.507, -83.3838
1106.000000, 78.666, -82.5116
1120.000000, 78.800, -81.8249
1138.000000, 78.964, -80.9881
1150.000000, 79.070, -80.4654
1172.000000, 79.259, -79.5671
1180.000000, 79.328, -79.2602
1206.000000, 79.547, -78.3414
1220.000000, 79.659, -77.8575
1241.000000, 79.818, -77.1686
1250.000000, 79.884, -76.8812
1265.000000, 79.992, -76.4169
1280.000000, 80.094, -75.9812
1315.000000, 80.315, -75.0021
1320.000000, 80.345, -74.8605
1340.000000, 80.458, -74.2863
1360.000000, 80.567, -73.7326
1380.000000, 80.673, -73.1964
1400.000000, 80.778, -72.6517
1430.000000, 80.933, -71.8359
1450.000000, 81.034, -71.2938
1475.000000, 81.158, -70.6113
1500.000000, 81.276, -69.9173
1525.000000, 81.391, -69.2256
1550.000000, 81.501, -68.5104
1575.000000, 81.610, -67.8143
1600.000000, 81.723, -67.1622
1625.000000, 81.834, -66.5009
1650.000000, 81.946, -65.8473
1675.000000, 82.062, -65.1988
1700.000000, 82.179, -64.5596
1725.000000, 82.294, -63.9267
1750.000000, 82.408, -63.3222
1775.000000, 82.521, -62.7340
1800.000000, 82.636, -62.1419
1825.000000, 82.751, -61.5603
1850.000000, 82.861, -61.0289
1875.000000, 82.969, -60.5086
1900.000000, 83.076, -59.9764
1925.000000, 83.183, -59.4637
1950.000000, 83.289, -58.9727
1975.000000, 83.393, -58.4869
2000.000000, 83.500, -58.0178
2030.000000, 83.629, -57.4541
2060.000000, 83.756, -56.9208
2090.000000, 83.884, -56.4190
2120.000000, 84.014, -55.9584
2140.000000, 84.101, -55.6746
2180.000000, 84.278, -55.1501
2200.000000, 84.368, -54.9107
2240.000000, 84.551, -54.5111
2270.000000, 84.687, -54.2556
2300.000000, 84.821, -54.0581
2330.000000, 84.957, -53.9200
2360.000000, 85.092, -53.8076
2400.000000, 85.268, -53.6989
2430.000000, 85.400, -53.6842
2470.000000, 85.573, -53.7284
2500.000000, 85.701, -53.8196
2540.000000, 85.866, -54.0246
2580.000000, 86.023, -54.3305
2620.000000, 86.172, -54.7120
2650.000000, 86.276, -55.0417
2690.000000, 86.402, -55.5656
2720.000000, 86.486, -56.0260
2760.000000, 86.588, -56.7048
2800.000000, 86.679, -57.4519
2850.000000, 86.770, -58.4736
2900.000000, 86.834, -59.5909
2950.000000, 86.870, -60.7988
3000.000000, 86.872, -62.0805
3040.000000, 86.844, -63.1746
3070.000000, 86.799, -64.0482
3110.000000, 86.686, -65.2815
3150.000000, 86.465, -66.2630
3200.000000, 86.161, -65.2068
3250.000000, 86.341, -63.7628
3300.000000, 86.478, -65.5236
3350.000000, 86.371, -67.2886
3400.000000, 86.189, -68.4781
3450.000000, 85.988, -69.3372
3500.000000, 85.778, -70.0062
3550.000000, 85.558, -70.5205
3600.000000, 85.330, -70.8824
3650.000000, 85.096, -71.1149
3700.000000, 84.860, -71.2336
3750.000000, 84.623, -71.2444
3820.000000, 84.284, -71.0822
3870.000000, 84.040, -70.8378
3950.000000, 83.652, -70.2194
4000.000000, 83.415, -69.7072
4060.000000, 83.136, -68.9970
4120.000000, 82.860, -68.1670
4180.000000, 82.588, -67.2353
4250.000000, 82.278, -66.0570
4310.000000, 82.018, -64.9694
4370.000000, 81.765, -63.8465
4440.000000, 81.478, -62.4687
4500.000000, 81.239, -61.2075
4550.000000, 81.043, -60.1017
4620.000000, 80.776, -58.4767
4680.000000, 80.554, -57.0365
4750.000000, 80.304, -55.2763
4820.000000, 80.069, -53.4084
4870.000000, 79.908, -52.0436
4940.000000, 79.690, -50.1155
5000.000000, 79.517, -48.4004
5080.000000, 79.298, -46.0375
5150.000000, 79.119, -43.9494
5220.000000, 78.957, -41.8614
5300.000000, 78.792, -39.4743
5380.000000, 78.642, -37.0921
5450.000000, 78.525, -35.0468
5520.000000, 78.416, -33.0400
5600.000000, 78.299, -30.7919
5700.000000, 78.154, -28.0739
5800.000000, 78.009, -25.3767
5900.000000, 77.874, -22.6247
6000.000000, 77.734, -19.8125
6080.000000, 77.627, -17.5615
6150.000000, 77.544, -15.5914
6220.000000, 77.471, -13.6098
6300.000000, 77.389, -11.3124
6400.000000, 77.297, -8.3771
6500.000000, 77.223, -5.3964
6600.000000, 77.161, -2.4011
6700.000000, 77.116, 0.6122
6800.000000, 77.092, 3.6979
6900.000000, 77.087, 6.8119
7000.000000, 77.101, 9.9405
7100.000000, 77.147, 13.1079
7200.000000, 77.229, 16.2716
7300.000000, 77.343, 19.3136
7400.000000, 77.480, 22.2652
7500.000000, 77.638, 25.1787
7620.000000, 77.874, 28.6249
7750.000000, 78.206, 32.1928
7880.000000, 78.606, 35.4835
8000.000000, 79.037, 38.1286
8120.000000, 79.522, 40.2601
8250.000000, 80.090, 41.9276
8380.000000, 80.681, 42.8659
8500.000000, 81.228, 43.0615
8620.000000, 81.764, 42.6078
8750.000000, 82.314, 41.3752
8850.000000, 82.697, 39.8740
9000.000000, 83.165, 36.7910
9120.000000, 83.413, 33.8009
9250.000000, 83.535, 30.3662
9380.000000, 83.519, 27.1639
9500.000000, 83.434, 24.5157
9620.000000, 83.273, 22.0630
9750.000000, 83.026, 20.2171
9880.000000, 82.860, 19.0052
10000.000000, 82.739, 17.4079
10150.000000, 82.480, 15.3313
10300.000000, 82.153, 13.7492
10440.000000, 81.818, 12.6974
10600.000000, 81.429, 12.1160
10750.000000, 81.093, 12.1097
10900.000000, 80.809, 12.4850
11060.000000, 80.582, 13.1487
11200.000000, 80.449, 13.7968
11380.000000, 80.364, 14.5271
11500.000000, 80.364, 14.8168
11720.000000, 80.474, 14.6786
11800.000000, 80.542, 14.3355
12060.000000, 80.808, 11.6607
12200.000000, 80.926, 9.0389
12410.000000, 80.953, 3.5105
12500.000000, 80.876, 0.6740
12650.000000, 80.593, -4.3665
12800.000000, 80.103, -9.3665
13150.000000, 78.281, -18.4787
13200.000000, 77.970, -19.3442
13400.000000, 76.676, -21.6801
13600.000000, 75.364, -22.2870
13800.000000, 74.086, -21.3982
14000.000000, 72.895, -19.3494
14300.000000, 71.324, -14.7814
14500.000000, 70.436, -10.9500
14750.000000, 69.499, -5.6729
15000.000000, 68.751, -0.0411
15250.000000, 68.176, 6.1314
15500.000000, 67.836, 13.3070
15750.000000, 68.068, 21.1636
16000.000000, 68.987, 24.7832
16250.000000, 69.456, 22.1111
16500.000000, 69.299, 21.1438
16750.000000, 69.415, 22.1347
17000.000000, 69.814, 21.0823
17250.000000, 70.139, 17.0486
17500.000000, 70.130, 10.4341
17750.000000, 69.583, 2.3335
18000.000000, 68.408, -5.5124
18250.000000, 66.695, -11.5403
18500.000000, 64.630, -15.3095
18750.000000, 62.349, -17.4576
19000.000000, 59.821, -18.1575
19250.000000, 57.099, -17.0976
19500.000000, 54.287, -14.8934
19750.000000, 51.632, -12.4145
