* Measurement data measured by REW V5.31.3
* Source: Input device not selected, no input selected, L, volume: no control
* Format: 256k Log Swept Sine, 1 sweep at -12.0 dBFS with no timing reference
* Dated: Dec 18, 2024 2:33:33 AM
* REW Settings:
*  C-weighting compensation: Off
*  Target level: 75.0 dB
* Note: 
* Measurement: Castor Pro Bass (UDDD P M)
* Smoothing: 1/24 octave
* Frequency Step: 1/48 octave
* Start Frequency: 20.300 Hz
*
* Freq(Hz), SPL(dB), Phase(degrees)
20.299999, 84.081, -148.1601
20.600000, 84.136, -148.2378
20.900000, 84.173, -148.3171
21.200001, 84.186, -148.4619
21.400000, 84.188, -148.6301
21.799999, 84.186, -149.1645
22.000000, 84.183, -149.5011
22.400000, 84.174, -150.1456
22.700001, 84.167, -150.4597
23.000000, 84.171, -150.5609
23.299999, 84.197, -150.5049
23.600000, 84.252, -150.4535
24.000000, 84.363, -150.7161
24.299999, 84.455, -151.3048
24.700001, 84.558, -152.5357
25.000000, 84.609, -153.5761
25.400000, 84.651, -154.7327
25.799999, 84.688, -155.3492
26.200001, 84.741, -155.4605
26.500000, 84.791, -155.3965
26.900000, 84.850, -155.4027
27.200001, 84.875, -155.5926
27.600000, 84.884, -156.1126
28.000000, 84.885, -156.8386
28.500000, 84.927, -157.8333
29.000000, 85.024, -158.7554
29.500000, 85.121, -159.4828
30.000000, 85.152, -159.9128
30.400000, 85.125, -160.0457
30.700001, 85.091, -160.0872
31.100000, 85.053, -160.1945
31.500000, 85.046, -160.4926
32.000000, 85.083, -161.1519
32.500000, 85.143, -161.8916
33.000000, 85.200, -162.4057
33.500000, 85.243, -162.6222
34.000000, 85.273, -162.7399
34.500000, 85.292, -163.0182
35.000000, 85.298, -163.5497
35.500000, 85.299, -164.2265
36.000000, 85.305, -164.8783
36.500000, 85.328, -165.4207
37.000000, 85.368, -165.8995
37.500000, 85.410, -166.4106
38.200001, 85.434, -167.2175
38.700001, 85.418, -167.7582
39.500000, 85.379, -168.4310
40.000000, 85.381, -168.8450
40.599998, 85.408, -169.4368
41.200001, 85.434, -169.9930
41.799999, 85.451, -170.3683
42.500000, 85.462, -170.7722
43.099998, 85.462, -171.3027
43.700001, 85.463, -171.8714
44.400002, 85.500, -172.2973
45.000000, 85.539, -172.5248
45.500000, 85.526, -172.7112
46.200001, 85.429, -172.9370
46.799999, 85.371, -173.1968
47.500000, 85.422, -173.9126
48.200001, 85.512, -174.8840
48.700001, 85.534, -175.3295
49.400002, 85.517, -175.5056
50.000000, 85.508, -175.7743
50.799999, 85.514, -176.7826
51.500000, 85.514, -177.6153
52.200001, 85.512, -177.8205
53.000000, 85.511, -177.8001
53.799999, 85.498, -178.3008
54.500000, 85.483, -179.0021
55.200001, 85.475, -179.4733
56.000000, 85.463, -179.7421
57.000000, 85.421, 179.6132
58.000000, 85.442, 178.6076
59.000000, 85.541, 177.5367
60.000000, 85.528, 176.8745
60.799999, 85.455, 176.8801
61.500000, 85.371, 176.9141
62.200001, 85.247, 176.9296
63.000000, 85.155, 177.0478
64.000000, 85.289, 176.2667
65.000000, 85.414, 174.6648
66.000000, 85.378, 174.1412
67.000000, 85.345, 173.9079
68.000000, 85.371, 173.2379
69.000000, 85.348, 172.2732
70.000000, 85.184, 171.2074
71.000000, 85.102, 169.4089
72.000000, 85.023, 167.4736
73.000000, 84.937, 168.1744
74.000000, 85.040, 169.5879
75.000000, 85.071, 169.8253
76.199997, 84.968, 170.0037
77.500000, 84.830, 169.1986
78.800003, 84.759, 168.1215
80.000000, 84.761, 167.4891
81.199997, 84.747, 166.8033
82.500000, 84.747, 166.3009
83.800003, 84.708, 165.9807
85.000000, 84.624, 165.7236
86.199997, 84.577, 165.2695
87.500000, 84.496, 163.7206
88.500000, 84.398, 162.5959
90.000000, 84.340, 162.8719
91.199997, 84.314, 163.3065
92.500000, 84.251, 163.1939
93.800003, 84.138, 162.8230
95.000000, 84.043, 162.5995
96.199997, 84.023, 162.2271
97.500000, 83.983, 161.6434
98.800003, 83.906, 160.7873
100.000000, 83.848, 160.1841
101.500000, 83.738, 159.8875
103.000000, 83.579, 159.8234
104.400002, 83.443, 159.7907
106.000000, 83.290, 159.7180
107.500000, 83.136, 159.8788
109.000000, 83.034, 160.1217
110.599998, 82.995, 160.6707
112.000000, 83.048, 161.0000
113.800003, 83.196, 160.8640
115.000000, 83.230, 160.5613
117.199997, 83.307, 159.3627
118.000000, 83.355, 159.2339
120.599998, 83.226, 158.3098
122.000000, 83.178, 157.5302
124.099998, 83.112, 156.5513
125.000000, 83.063, 156.3926
126.500000, 82.965, 156.2823
128.000000, 82.914, 155.6361
131.500000, 82.760, 154.0980
132.000000, 82.710, 154.0148
134.000000, 82.508, 153.6556
136.000000, 82.391, 153.1194
138.000000, 82.294, 152.4391
140.000000, 82.176, 152.1447
143.000000, 81.987, 151.9443
145.000000, 81.859, 151.5898
147.500000, 81.679, 151.1765
150.000000, 81.532, 150.8900
152.500000, 81.390, 150.6387
155.000000, 81.226, 150.4167
157.500000, 81.051, 150.2317
160.000000, 80.903, 149.9088
162.500000, 80.758, 149.5620
165.000000, 80.590, 149.3840
167.500000, 80.424, 149.3317
170.000000, 80.262, 149.1543
172.500000, 80.094, 149.0164
175.000000, 79.927, 149.0078
177.500000, 79.766, 149.0363
180.000000, 79.604, 148.9978
182.500000, 79.437, 149.0345
185.000000, 79.267, 149.0670
187.500000, 79.104, 149.1812
190.000000, 78.950, 149.3508
192.500000, 78.787, 149.5605
195.000000, 78.618, 149.7334
197.500000, 78.456, 149.8647
200.000000, 78.299, 150.0374
203.000000, 78.110, 150.3069
206.000000, 77.925, 150.6812
209.000000, 77.745, 151.1899
212.000000, 77.563, 151.6371
214.000000, 77.438, 151.9397
218.000000, 77.176, 152.5404
220.000000, 77.040, 152.9272
224.000000, 76.801, 153.6280
227.000000, 76.646, 154.0425
230.000000, 76.473, 154.6021
233.000000, 76.304, 155.3473
236.000000, 76.134, 156.0917
240.000000, 75.917, 157.0991
243.000000, 75.761, 157.8474
247.000000, 75.582, 158.9242
250.000000, 75.436, 159.7387
254.000000, 75.216, 160.8146
258.000000, 75.021, 162.0386
262.000000, 74.834, 163.4941
265.000000, 74.709, 164.5204
269.000000, 74.557, 165.7762
272.000000, 74.445, 166.7503
276.000000, 74.300, 167.9787
280.000000, 74.159, 169.3108
285.000000, 74.003, 171.1791
290.000000, 73.863, 172.9650
295.000000, 73.751, 174.6118
300.000000, 73.644, 176.4563
304.000000, 73.558, 177.9400
307.000000, 73.498, 179.0443
311.000000, 73.421, -179.5296
315.000000, 73.362, -178.1515
320.000000, 73.317, -176.4602
325.000000, 73.266, -174.7924
330.000000, 73.229, -173.0741
335.000000, 73.218, -171.4460
340.000000, 73.221, -169.8493
345.000000, 73.229, -168.4450
350.000000, 73.224, -166.9406
355.000000, 73.213, -165.2880
360.000000, 73.220, -163.8781
365.000000, 73.234, -162.6473
370.000000, 73.249, -161.4154
375.000000, 73.285, -160.0784
382.000000, 73.345, -158.2957
387.000000, 73.383, -157.0260
395.000000, 73.438, -155.2593
400.000000, 73.470, -154.1967
406.000000, 73.518, -152.9399
412.000000, 73.566, -151.7501
418.000000, 73.617, -150.5749
425.000000, 73.673, -149.3316
431.000000, 73.713, -148.2738
437.000000, 73.752, -147.1849
444.000000, 73.815, -145.9914
450.000000, 73.875, -144.9626
455.000000, 73.927, -144.1552
462.000000, 73.994, -143.1065
468.000000, 74.046, -142.1989
475.000000, 74.101, -141.2607
482.000000, 74.144, -140.3308
487.000000, 74.177, -139.5530
494.000000, 74.234, -138.5276
500.000000, 74.289, -137.7503
508.000000, 74.362, -136.8066
515.000000, 74.421, -136.0375
522.000000, 74.469, -135.2306
530.000000, 74.513, -134.3132
538.000000, 74.562, -133.3508
545.000000, 74.605, -132.4876
552.000000, 74.649, -131.7293
560.000000, 74.688, -130.8878
570.000000, 74.746, -129.8169
580.000000, 74.803, -128.7816
590.000000, 74.852, -127.7250
600.000000, 74.897, -126.6934
608.000000, 74.940, -125.9619
615.000000, 74.978, -125.2495
622.000000, 75.010, -124.5389
630.000000, 75.040, -123.8084
640.000000, 75.078, -122.9666
650.000000, 75.103, -122.1585
660.000000, 75.104, -121.2340
670.000000, 75.105, -119.9804
680.000000, 75.154, -118.6433
690.000000, 75.218, -117.4890
700.000000, 75.275, -116.4556
710.000000, 75.332, -115.4384
720.000000, 75.379, -114.5188
730.000000, 75.426, -113.6056
740.000000, 75.475, -112.6315
750.000000, 75.524, -111.6581
762.000000, 75.579, -110.5095
775.000000, 75.647, -109.2885
788.000000, 75.718, -108.0556
800.000000, 75.770, -106.9440
812.000000, 75.825, -105.8316
825.000000, 75.892, -104.5722
838.000000, 75.964, -103.3828
850.000000, 76.030, -102.2994
862.000000, 76.097, -101.1641
875.000000, 76.183, -99.9170
885.000000, 76.253, -98.9739
900.000000, 76.352, -97.5462
912.000000, 76.435, -96.4159
925.000000, 76.531, -95.2663
938.000000, 76.633, -94.2227
950.000000, 76.733, -93.2626
962.000000, 76.832, -92.2707
975.000000, 76.942, -91.2464
988.000000, 77.052, -90.2957
1000.000000, 77.154, -89.3996
1015.000000, 77.284, -88.2134
1030.000000, 77.416, -87.0908
1044.000000, 77.543, -86.1253
1060.000000, 77.689, -85.1406
1075.000000, 77.823, -84.2569
1090.000000, 77.956, -83.4315
1106.000000, 78.102, -82.5833
1120.000000, 78.228, -81.8720
1138.000000, 78.383, -81.0311
1150.000000, 78.485, -80.5121
1172.000000, 78.668, -79.6007
1180.000000, 78.732, -79.2732
1206.000000, 78.932, -78.2693
1220.000000, 79.030, -77.7620
1241.000000, 79.174, -76.9850
1250.000000, 79.236, -76.6704
1265.000000, 79.335, -76.2018
1280.000000, 79.428, -75.7584
1315.000000, 79.632, -74.6767
1320.000000, 79.661, -74.5224
1340.000000, 79.775, -73.9211
1360.000000, 79.885, -73.2959
1380.000000, 79.989, -72.6913
1400.000000, 80.084, -72.1289
1430.000000, 80.215, -71.1878
1450.000000, 80.305, -70.5482
1475.000000, 80.416, -69.7606
1500.000000, 80.521, -68.9811
1525.000000, 80.627, -68.2436
1550.000000, 80.734, -67.5008
1575.000000, 80.841, -66.6810
1600.000000, 80.945, -65.8617
1625.000000, 81.048, -65.0755
1650.000000, 81.149, -64.3006
1675.000000, 81.249, -63.5308
1700.000000, 81.353, -62.7743
1725.000000, 81.456, -61.9972
1750.000000, 81.558, -61.2163
1775.000000, 81.661, -60.4623
1800.000000, 81.768, -59.7374
1825.000000, 81.880, -58.9397
1850.000000, 81.997, -58.1375
1875.000000, 82.122, -57.3772
1900.000000, 82.255, -56.6718
1925.000000, 82.386, -56.0539
1950.000000, 82.515, -55.5184
1975.000000, 82.637, -55.0045
2000.000000, 82.755, -54.4910
2030.000000, 82.897, -53.9184
2060.000000, 83.041, -53.3776
2090.000000, 83.184, -52.8346
2120.000000, 83.326, -52.3099
2140.000000, 83.419, -52.0008
2180.000000, 83.599, -51.4289
2200.000000, 83.690, -51.1610
2240.000000, 83.874, -50.7052
2270.000000, 84.009, -50.3913
2300.000000, 84.137, -50.0619
2330.000000, 84.263, -49.7421
2360.000000, 84.391, -49.4399
2400.000000, 84.575, -49.0397
2430.000000, 84.724, -48.7754
2470.000000, 84.934, -48.6019
2500.000000, 85.088, -48.6350
2540.000000, 85.275, -48.8462
2580.000000, 85.442, -49.1693
2620.000000, 85.593, -49.5379
2650.000000, 85.698, -49.8498
2690.000000, 85.825, -50.2942
2720.000000, 85.913, -50.6725
2760.000000, 86.019, -51.2591
2800.000000, 86.110, -51.8929
2850.000000, 86.203, -52.7465
2900.000000, 86.275, -53.6798
2950.000000, 86.320, -54.6941
3000.000000, 86.334, -55.7786
3040.000000, 86.319, -56.7027
3070.000000, 86.288, -57.4557
3110.000000, 86.199, -58.5243
3150.000000, 86.009, -59.3935
3200.000000, 85.715, -58.3956
3250.000000, 85.894, -56.6126
3300.000000, 86.077, -58.1211
3350.000000, 86.001, -59.7997
3400.000000, 85.848, -60.9107
3450.000000, 85.676, -61.6965
3500.000000, 85.493, -62.2869
3550.000000, 85.298, -62.7440
3600.000000, 85.095, -63.0584
3650.000000, 84.881, -63.2265
3700.000000, 84.657, -63.2355
3750.000000, 84.432, -63.0935
3820.000000, 84.124, -62.7207
3870.000000, 83.914, -62.3631
3950.000000, 83.582, -61.5937
4000.000000, 83.376, -61.0183
4060.000000, 83.135, -60.2520
4120.000000, 82.899, -59.4226
4180.000000, 82.668, -58.5750
4250.000000, 82.396, -57.5350
4310.000000, 82.156, -56.5640
4370.000000, 81.911, -55.4879
4440.000000, 81.627, -54.0286
4500.000000, 81.392, -52.5960
4550.000000, 81.207, -51.3433
4620.000000, 80.965, -49.4692
4680.000000, 80.776, -47.7873
4750.000000, 80.574, -45.7912
4820.000000, 80.385, -43.7349
4870.000000, 80.257, -42.2205
4940.000000, 80.095, -40.0680
5000.000000, 79.974, -38.2021
5080.000000, 79.831, -35.7356
5150.000000, 79.723, -33.5455
5220.000000, 79.627, -31.3788
5300.000000, 79.531, -28.9321
5380.000000, 79.454, -26.4469
5450.000000, 79.405, -24.2778
5520.000000, 79.368, -22.1696
5600.000000, 79.338, -19.8288
5700.000000, 79.322, -16.9397
5800.000000, 79.324, -14.2152
5900.000000, 79.331, -11.5809
6000.000000, 79.350, -8.9255
6080.000000, 79.375, -6.8517
6150.000000, 79.405, -5.0539
6220.000000, 79.446, -3.2692
6300.000000, 79.505, -1.2412
6400.000000, 79.598, 1.2261
6500.000000, 79.707, 3.5846
6600.000000, 79.841, 5.8326
6700.000000, 79.997, 7.9838
6800.000000, 80.168, 9.9797
6900.000000, 80.356, 11.7723
7000.000000, 80.561, 13.4720
7100.000000, 80.786, 15.0728
7200.000000, 81.046, 16.5361
7300.000000, 81.352, 17.6995
7400.000000, 81.689, 18.4011
7500.000000, 82.041, 18.5701
7620.000000, 82.457, 17.9734
7750.000000, 82.849, 16.3728
7880.000000, 83.133, 13.8072
8000.000000, 83.258, 10.8231
8120.000000, 83.229, 7.5837
8250.000000, 83.026, 4.2000
8380.000000, 82.674, 1.3174
8500.000000, 82.255, -0.7564
8620.000000, 81.778, -2.2196
8750.000000, 81.224, -3.1885
8850.000000, 80.785, -3.4754
9000.000000, 80.117, -3.2496
9120.000000, 79.587, -2.5713
9250.000000, 79.026, -1.2553
9380.000000, 78.505, 0.6914
9500.000000, 78.088, 2.7782
9620.000000, 77.701, 5.0176
9750.000000, 77.320, 8.0181
9880.000000, 77.086, 11.3934
10000.000000, 76.948, 13.9112
10150.000000, 76.738, 16.9133
10300.000000, 76.566, 20.3258
10440.000000, 76.484, 23.7433
10600.000000, 76.487, 27.6809
10750.000000, 76.587, 31.2783
10900.000000, 76.781, 34.7545
11060.000000, 77.090, 38.1283
11200.000000, 77.446, 40.6070
11380.000000, 78.003, 43.0160
11500.000000, 78.422, 44.0835
11720.000000, 79.289, 44.8383
11800.000000, 79.632, 44.6187
12060.000000, 80.769, 41.4907
12200.000000, 81.314, 38.0938
12410.000000, 81.864, 30.7709
12500.000000, 81.960, 27.0450
12650.000000, 81.891, 20.5765
12800.000000, 81.536, 14.4120
13150.000000, 79.964, 4.3399
13200.000000, 79.700, 3.4876
13400.000000, 78.651, 1.3115
13600.000000, 77.682, 0.7660
13800.000000, 76.849, 1.4202
14000.000000, 76.176, 2.7718
14300.000000, 75.465, 5.2290
14500.000000, 75.207, 6.6562
14750.000000, 75.100, 7.3612
15000.000000, 75.112, 6.1700
15250.000000, 75.074, 2.8128
15500.000000, 74.774, -2.0096
15750.000000, 74.181, -6.2211
16000.000000, 73.687, -9.8385
16250.000000, 73.063, -16.2169
16500.000000, 71.727, -21.7499
16750.000000, 70.142, -23.1518
17000.000000, 68.737, -22.1591
17250.000000, 67.481, -20.0765
17500.000000, 66.286, -17.3004
17750.000000, 65.144, -14.1556
18000.000000, 64.077, -10.9884
18250.000000, 63.081, -7.7028
18500.000000, 62.164, -5.0092
18750.000000, 61.274, -4.4016
19000.000000, 60.278, -6.2606
19250.000000, 59.052, -10.8998
19500.000000, 57.424, -18.9708
19750.000000, 55.317, -29.3545
