* Measurement data measured by REW V5.31.3
* Source: Input device not selected, no input selected, L, volume: no control
* Format: 256k Log Swept Sine, 1 sweep at -12.0 dBFS with no timing reference
* Dated: Dec 17, 2024 11:50:59 PM
* REW Settings:
*  C-weighting compensation: Off
*  Target level: 75.0 dB
* Note: ; 
* Measurement: Castor Pro Bass (UUUU W M)
* Smoothing: 1/24 octave
* Frequency Step: 1/48 octave
* Start Frequency: 20.300 Hz
*
* Freq(Hz), SPL(dB), Phase(degrees)
20.299999, 82.394, -149.1235
20.600000, 82.426, -149.5266
20.900000, 82.470, -149.9469
21.200001, 82.520, -150.3526
21.400000, 82.555, -150.6213
21.799999, 82.618, -151.1500
22.000000, 82.643, -151.3990
22.400000, 82.683, -151.8385
22.700001, 82.709, -152.1189
23.000000, 82.737, -152.3871
23.299999, 82.772, -152.6867
23.600000, 82.813, -153.0547
24.000000, 82.871, -153.6652
24.299999, 82.912, -154.1818
24.700001, 82.960, -154.8664
25.000000, 82.993, -155.3290
25.400000, 83.036, -155.8542
25.799999, 83.081, -156.3044
26.200001, 83.124, -156.7360
26.500000, 83.152, -157.0724
26.900000, 83.182, -157.5456
27.200001, 83.201, -157.9131
27.600000, 83.225, -158.4074
28.000000, 83.251, -158.8967
28.500000, 83.288, -159.4893
29.000000, 83.325, -160.0462
29.500000, 83.360, -160.5643
30.000000, 83.395, -161.0680
30.400000, 83.422, -161.4839
30.700001, 83.442, -161.8072
31.100000, 83.467, -162.2444
31.500000, 83.488, -162.6685
32.000000, 83.513, -163.1607
32.500000, 83.536, -163.6265
33.000000, 83.558, -164.1106
33.500000, 83.575, -164.6353
34.000000, 83.586, -165.1716
34.500000, 83.596, -165.6682
35.000000, 83.612, -166.1071
35.500000, 83.635, -166.5213
36.000000, 83.660, -166.9558
36.500000, 83.680, -167.4231
37.000000, 83.694, -167.8980
37.500000, 83.705, -168.3506
38.200001, 83.725, -168.9400
38.700001, 83.740, -169.3509
39.500000, 83.754, -170.0275
40.000000, 83.757, -170.4609
40.599998, 83.761, -170.9732
41.200001, 83.770, -171.4588
41.799999, 83.784, -171.9226
42.500000, 83.797, -172.4712
43.099998, 83.800, -172.9609
43.700001, 83.798, -173.4500
44.400002, 83.798, -173.9989
45.000000, 83.801, -174.4528
45.500000, 83.802, -174.8206
46.200001, 83.800, -175.3191
46.799999, 83.799, -175.7457
47.500000, 83.800, -176.2640
48.200001, 83.798, -176.7845
48.700001, 83.794, -177.1344
49.400002, 83.787, -177.5937
50.000000, 83.786, -177.9856
50.799999, 83.789, -178.5272
51.500000, 83.788, -179.0085
52.200001, 83.775, -179.4860
53.000000, 83.752, 179.9854
53.799999, 83.735, 179.4840
54.500000, 83.727, 179.0620
55.200001, 83.718, 178.6536
56.000000, 83.705, 178.1843
57.000000, 83.691, 177.5540
58.000000, 83.674, 177.0293
59.000000, 83.659, 176.6185
60.000000, 83.638, 176.0020
60.799999, 83.611, 175.4291
61.500000, 83.584, 174.9932
62.200001, 83.558, 174.6142
63.000000, 83.534, 174.1856
64.000000, 83.520, 173.5729
65.000000, 83.500, 172.9121
66.000000, 83.457, 172.3652
67.000000, 83.420, 171.8929
68.000000, 83.392, 171.3687
69.000000, 83.342, 170.7975
70.000000, 83.284, 170.2371
71.000000, 83.253, 169.6951
72.000000, 83.231, 169.2522
73.000000, 83.199, 168.9396
74.000000, 83.168, 168.5644
75.000000, 83.139, 168.1350
76.199997, 83.096, 167.7187
77.500000, 83.043, 167.2242
78.800003, 82.989, 166.5867
80.000000, 82.932, 166.0251
81.199997, 82.875, 165.4961
82.500000, 82.810, 164.9869
83.800003, 82.750, 164.5176
85.000000, 82.692, 164.0336
86.199997, 82.625, 163.5805
87.500000, 82.563, 163.1550
88.500000, 82.521, 162.7914
90.000000, 82.447, 162.1968
91.199997, 82.384, 161.7459
92.500000, 82.316, 161.3118
93.800003, 82.247, 160.9050
95.000000, 82.186, 160.5116
96.199997, 82.120, 160.0773
97.500000, 82.042, 159.6486
98.800003, 81.971, 159.2824
100.000000, 81.909, 158.9460
101.500000, 81.824, 158.4785
103.000000, 81.730, 158.0264
104.400002, 81.644, 157.6237
106.000000, 81.552, 157.2038
107.500000, 81.459, 156.8577
109.000000, 81.365, 156.5360
110.599998, 81.269, 156.1471
112.000000, 81.186, 155.8061
113.800003, 81.072, 155.4749
115.000000, 80.993, 155.2689
117.199997, 80.844, 154.7658
118.000000, 80.789, 154.5853
120.599998, 80.618, 154.1254
122.000000, 80.525, 153.8228
124.099998, 80.385, 153.4875
125.000000, 80.323, 153.3457
126.500000, 80.218, 153.0919
128.000000, 80.109, 152.8511
131.500000, 79.868, 152.3900
132.000000, 79.835, 152.3280
134.000000, 79.699, 152.1298
136.000000, 79.555, 151.9457
138.000000, 79.415, 151.7419
140.000000, 79.278, 151.5803
143.000000, 79.056, 151.3996
145.000000, 78.909, 151.3152
147.500000, 78.723, 151.1901
150.000000, 78.522, 151.1617
152.500000, 78.346, 151.1599
155.000000, 78.175, 151.2066
157.500000, 77.990, 151.2347
160.000000, 77.787, 151.4151
162.500000, 77.593, 151.5735
165.000000, 77.392, 151.6067
167.500000, 77.207, 151.6934
170.000000, 77.034, 151.8671
172.500000, 76.856, 152.2167
175.000000, 76.665, 152.6032
177.500000, 76.470, 153.0068
180.000000, 76.279, 153.4244
182.500000, 76.101, 153.8762
185.000000, 75.928, 154.3997
187.500000, 75.746, 154.9867
190.000000, 75.567, 155.6066
192.500000, 75.391, 156.2102
195.000000, 75.215, 156.8130
197.500000, 75.048, 157.4688
200.000000, 74.884, 158.1785
203.000000, 74.687, 159.1109
206.000000, 74.485, 160.0420
209.000000, 74.299, 161.0225
212.000000, 74.129, 162.0901
214.000000, 74.021, 162.8632
218.000000, 73.797, 164.3145
220.000000, 73.692, 165.0240
224.000000, 73.511, 166.3690
227.000000, 73.387, 167.7112
230.000000, 73.256, 169.3554
233.000000, 73.115, 170.8454
236.000000, 72.975, 172.0887
240.000000, 72.795, 173.6364
243.000000, 72.706, 174.8576
247.000000, 72.630, 176.4140
250.000000, 72.556, 178.0627
254.000000, 72.449, -179.4226
258.000000, 72.377, -177.2453
262.000000, 72.359, -175.1811
265.000000, 72.379, -173.7083
269.000000, 72.406, -171.9712
272.000000, 72.406, -170.7032
276.000000, 72.424, -169.1589
280.000000, 72.465, -167.8289
285.000000, 72.495, -166.1371
290.000000, 72.513, -164.3102
295.000000, 72.545, -162.6636
300.000000, 72.588, -161.3028
304.000000, 72.635, -160.0902
307.000000, 72.679, -159.0870
311.000000, 72.740, -157.8631
315.000000, 72.793, -156.7476
320.000000, 72.857, -155.3529
325.000000, 72.920, -153.9881
330.000000, 72.992, -152.7896
335.000000, 73.072, -151.5829
340.000000, 73.155, -150.4278
345.000000, 73.241, -149.2844
350.000000, 73.325, -148.3548
355.000000, 73.397, -147.4805
360.000000, 73.463, -146.5303
365.000000, 73.540, -145.6219
370.000000, 73.617, -144.7830
375.000000, 73.689, -144.0310
382.000000, 73.787, -142.9420
387.000000, 73.858, -142.1785
395.000000, 73.977, -141.0000
400.000000, 74.046, -140.3062
406.000000, 74.123, -139.5535
412.000000, 74.191, -138.8550
418.000000, 74.258, -138.1286
425.000000, 74.335, -137.2754
431.000000, 74.406, -136.6430
437.000000, 74.474, -136.0067
444.000000, 74.544, -135.2357
450.000000, 74.605, -134.6001
455.000000, 74.652, -134.0882
462.000000, 74.717, -133.3569
468.000000, 74.770, -132.7588
475.000000, 74.827, -132.1123
482.000000, 74.883, -131.4922
487.000000, 74.921, -131.0478
494.000000, 74.971, -130.4174
500.000000, 75.016, -129.8737
508.000000, 75.076, -129.1505
515.000000, 75.126, -128.5495
522.000000, 75.171, -127.9716
530.000000, 75.221, -127.2977
538.000000, 75.267, -126.6741
545.000000, 75.304, -126.1165
552.000000, 75.342, -125.5245
560.000000, 75.383, -124.8701
570.000000, 75.428, -124.0253
580.000000, 75.479, -123.2395
590.000000, 75.528, -122.4731
600.000000, 75.570, -121.6560
608.000000, 75.603, -121.0392
615.000000, 75.635, -120.5243
622.000000, 75.669, -120.0121
630.000000, 75.707, -119.4414
640.000000, 75.738, -118.8217
650.000000, 75.744, -118.2680
660.000000, 75.722, -117.5549
670.000000, 75.698, -116.4452
680.000000, 75.717, -115.1841
690.000000, 75.771, -114.0926
700.000000, 75.830, -113.1424
710.000000, 75.883, -112.2305
720.000000, 75.934, -111.3465
730.000000, 75.978, -110.5098
740.000000, 76.017, -109.6744
750.000000, 76.054, -108.8464
762.000000, 76.103, -107.8417
775.000000, 76.158, -106.6904
788.000000, 76.214, -105.5137
800.000000, 76.267, -104.4527
812.000000, 76.321, -103.4067
825.000000, 76.385, -102.2590
838.000000, 76.454, -101.0931
850.000000, 76.520, -100.0325
862.000000, 76.586, -98.9709
875.000000, 76.660, -97.8161
885.000000, 76.723, -96.9407
900.000000, 76.819, -95.6608
912.000000, 76.900, -94.6130
925.000000, 76.992, -93.5089
938.000000, 77.088, -92.4484
950.000000, 77.182, -91.4903
962.000000, 77.279, -90.5752
975.000000, 77.386, -89.6050
988.000000, 77.496, -88.6317
1000.000000, 77.601, -87.7766
1015.000000, 77.734, -86.7149
1030.000000, 77.871, -85.6934
1044.000000, 78.001, -84.7844
1060.000000, 78.147, -83.7996
1075.000000, 78.287, -82.9435
1090.000000, 78.427, -82.1640
1106.000000, 78.570, -81.3959
1120.000000, 78.693, -80.7554
1138.000000, 78.852, -79.9619
1150.000000, 78.956, -79.4664
1172.000000, 79.144, -78.6380
1180.000000, 79.210, -78.3562
1206.000000, 79.414, -77.4884
1220.000000, 79.517, -77.0384
1241.000000, 79.667, -76.3825
1250.000000, 79.730, -76.1228
1265.000000, 79.830, -75.7123
1280.000000, 79.925, -75.3020
1315.000000, 80.137, -74.3636
1320.000000, 80.166, -74.2287
1340.000000, 80.278, -73.7002
1360.000000, 80.382, -73.1871
1380.000000, 80.484, -72.6634
1400.000000, 80.584, -72.1329
1430.000000, 80.729, -71.3591
1450.000000, 80.816, -70.8345
1475.000000, 80.925, -70.1577
1500.000000, 81.031, -69.4761
1525.000000, 81.141, -68.8071
1550.000000, 81.248, -68.1095
1575.000000, 81.349, -67.4078
1600.000000, 81.451, -66.7268
1625.000000, 81.553, -66.0392
1650.000000, 81.656, -65.3362
1675.000000, 81.758, -64.6361
1700.000000, 81.860, -63.9593
1725.000000, 81.965, -63.2994
1750.000000, 82.071, -62.6231
1775.000000, 82.178, -61.9629
1800.000000, 82.287, -61.3174
1825.000000, 82.396, -60.6898
1850.000000, 82.506, -60.0767
1875.000000, 82.618, -59.4778
1900.000000, 82.732, -58.9025
1925.000000, 82.849, -58.3518
1950.000000, 82.964, -57.8148
1975.000000, 83.080, -57.3031
2000.000000, 83.196, -56.8188
2030.000000, 83.337, -56.2805
2060.000000, 83.479, -55.7909
2090.000000, 83.620, -55.3377
2120.000000, 83.762, -54.9139
2140.000000, 83.856, -54.6532
2180.000000, 84.042, -54.1741
2200.000000, 84.135, -53.9579
2240.000000, 84.317, -53.5874
2270.000000, 84.453, -53.3526
2300.000000, 84.588, -53.1680
2330.000000, 84.721, -53.0249
2360.000000, 84.853, -52.9206
2400.000000, 85.028, -52.8443
2430.000000, 85.156, -52.8440
2470.000000, 85.322, -52.9162
2500.000000, 85.443, -53.0308
2540.000000, 85.599, -53.2585
2580.000000, 85.747, -53.5695
2620.000000, 85.885, -53.9705
2650.000000, 85.981, -54.3235
2690.000000, 86.101, -54.8657
2720.000000, 86.182, -55.3234
2760.000000, 86.279, -55.9967
2800.000000, 86.361, -56.7437
2850.000000, 86.441, -57.7768
2900.000000, 86.491, -58.8826
2950.000000, 86.510, -60.0565
3000.000000, 86.496, -61.3045
3040.000000, 86.458, -62.3530
3070.000000, 86.408, -63.1808
3110.000000, 86.291, -64.3430
3150.000000, 86.072, -65.3173
3200.000000, 85.732, -64.4996
3250.000000, 85.852, -62.6838
3300.000000, 86.003, -64.1585
3350.000000, 85.893, -65.8394
3400.000000, 85.700, -66.9221
3450.000000, 85.489, -67.6514
3500.000000, 85.270, -68.1586
3550.000000, 85.044, -68.4928
3600.000000, 84.813, -68.6742
3650.000000, 84.577, -68.7209
3700.000000, 84.340, -68.6491
3750.000000, 84.102, -68.4727
3820.000000, 83.769, -68.0596
3870.000000, 83.532, -67.6465
3950.000000, 83.159, -66.7782
4000.000000, 82.933, -66.1367
4060.000000, 82.665, -65.2707
4120.000000, 82.400, -64.3038
4180.000000, 82.143, -63.2375
4250.000000, 81.853, -61.8846
4310.000000, 81.609, -60.6537
4370.000000, 81.373, -59.3675
4440.000000, 81.109, -57.7695
4500.000000, 80.889, -56.3299
4550.000000, 80.711, -55.0896
4620.000000, 80.473, -53.2663
4680.000000, 80.278, -51.6391
4750.000000, 80.060, -49.7015
4820.000000, 79.855, -47.6974
4870.000000, 79.717, -46.1979
4940.000000, 79.535, -44.0772
5000.000000, 79.394, -42.2503
5080.000000, 79.221, -39.7787
5150.000000, 79.086, -37.5784
5220.000000, 78.965, -35.3589
5300.000000, 78.844, -32.8248
5380.000000, 78.740, -30.3167
5450.000000, 78.668, -28.1437
5520.000000, 78.608, -26.0237
5600.000000, 78.546, -23.6547
5700.000000, 78.478, -20.7401
5800.000000, 78.421, -17.9031
5900.000000, 78.375, -15.0802
6000.000000, 78.332, -12.2641
6080.000000, 78.309, -10.0109
6150.000000, 78.297, -8.0236
6220.000000, 78.290, -6.0313
6300.000000, 78.289, -3.7787
6400.000000, 78.302, -0.9859
6500.000000, 78.329, 1.7831
6600.000000, 78.374, 4.5415
6700.000000, 78.438, 7.2991
6800.000000, 78.524, 10.0396
6900.000000, 78.633, 12.7614
7000.000000, 78.762, 15.4478
7100.000000, 78.923, 18.0944
7200.000000, 79.117, 20.6633
7300.000000, 79.346, 23.1086
7400.000000, 79.613, 25.4059
7500.000000, 79.913, 27.5162
7620.000000, 80.316, 29.7534
7750.000000, 80.809, 31.7626
7880.000000, 81.366, 33.2110
8000.000000, 81.928, 33.8536
8120.000000, 82.517, 33.6665
8250.000000, 83.143, 32.3809
8380.000000, 83.702, 30.0054
8500.000000, 84.122, 26.9563
8620.000000, 84.422, 23.2535
8750.000000, 84.593, 18.7379
8850.000000, 84.604, 15.0940
9000.000000, 84.420, 9.6644
9120.000000, 84.108, 5.6551
9250.000000, 83.630, 1.9537
9380.000000, 83.055, -0.8132
9500.000000, 82.496, -2.6590
9620.000000, 81.902, -4.0044
9750.000000, 81.226, -4.3592
9880.000000, 80.659, -3.7566
10000.000000, 80.217, -3.4213
10150.000000, 79.628, -2.8407
10300.000000, 79.060, -1.4759
10440.000000, 78.598, 0.2882
10600.000000, 78.161, 2.6190
10750.000000, 77.837, 4.9661
10900.000000, 77.603, 7.3234
11060.000000, 77.447, 9.7083
11200.000000, 77.377, 11.6048
11380.000000, 77.366, 13.6266
11500.000000, 77.398, 14.6278
11720.000000, 77.511, 15.6212
11800.000000, 77.565, 15.6903
12060.000000, 77.739, 14.6820
12200.000000, 77.799, 13.2662
12410.000000, 77.762, 9.9780
12500.000000, 77.675, 8.2387
12650.000000, 77.408, 5.1452
12800.000000, 76.984, 2.1143
13150.000000, 75.503, -2.9630
13200.000000, 75.256, -3.3711
13400.000000, 74.234, -4.1903
13600.000000, 73.195, -3.7520
13800.000000, 72.194, -2.2003
14000.000000, 71.253, 0.2406
14300.000000, 70.001, 5.2076
14500.000000, 69.308, 9.2098
14750.000000, 68.607, 14.7482
15000.000000, 68.089, 20.6297
15250.000000, 67.759, 26.9534
15500.000000, 67.713, 34.4226
15750.000000, 68.361, 42.7126
16000.000000, 69.829, 46.0657
16250.000000, 70.924, 41.5162
16500.000000, 71.389, 36.5113
16750.000000, 72.026, 31.3606
17000.000000, 72.617, 21.5676
17250.000000, 72.450, 7.6748
17500.000000, 71.183, -6.3965
17750.000000, 68.978, -16.9741
18000.000000, 66.249, -22.5894
18250.000000, 63.347, -23.7315
18500.000000, 60.489, -21.8685
18750.000000, 57.717, -18.9009
19000.000000, 54.894, -15.2153
19250.000000, 51.973, -10.2932
19500.000000, 49.005, -4.5364
19750.000000, 46.169, 0.9828
