* Measurement data measured by REW V5.31.3
* Source: Input device not selected, no input selected, L, volume: no control
* Format: 256k Log Swept Sine, 1 sweep at -12.0 dBFS with no timing reference
* Dated: Dec 18, 2024 1:18:54 AM
* REW Settings:
*  C-weighting compensation: Off
*  Target level: 75.0 dB
* Note: ; 
* Measurement: Castor Pro Bass (DDUU W M)
* Smoothing: 1/24 octave
* Frequency Step: 1/48 octave
* Start Frequency: 20.300 Hz
*
* Freq(Hz), SPL(dB), Phase(degrees)
20.299999, 79.798, -136.4913
20.600000, 79.823, -136.7111
20.900000, 79.878, -136.9750
21.200001, 79.959, -137.3149
21.400000, 80.022, -137.5922
21.799999, 80.150, -138.2175
22.000000, 80.208, -138.5247
22.400000, 80.310, -139.0428
22.700001, 80.379, -139.3323
23.000000, 80.446, -139.5753
23.299999, 80.514, -139.8344
23.600000, 80.578, -140.1618
24.000000, 80.651, -140.7221
24.299999, 80.691, -141.1932
24.700001, 80.731, -141.7854
25.000000, 80.757, -142.1492
25.400000, 80.802, -142.5204
25.799999, 80.865, -142.8344
26.200001, 80.940, -143.1948
26.500000, 80.997, -143.5312
26.900000, 81.061, -144.0525
27.200001, 81.099, -144.4579
27.600000, 81.142, -144.9514
28.000000, 81.188, -145.3489
28.500000, 81.264, -145.7418
29.000000, 81.362, -146.1477
29.500000, 81.456, -146.6695
30.000000, 81.519, -147.2793
30.400000, 81.543, -147.7505
30.700001, 81.552, -148.0613
31.100000, 81.562, -148.4177
31.500000, 81.582, -148.7498
32.000000, 81.623, -149.2121
32.500000, 81.671, -149.7454
33.000000, 81.711, -150.2501
33.500000, 81.745, -150.5999
34.000000, 81.787, -150.7794
34.500000, 81.850, -150.9292
35.000000, 81.928, -151.2385
35.500000, 81.998, -151.7861
36.000000, 82.043, -152.4733
36.500000, 82.066, -153.1105
37.000000, 82.085, -153.5852
37.500000, 82.122, -153.9584
38.200001, 82.194, -154.6087
38.700001, 82.235, -155.2355
39.500000, 82.257, -156.1788
40.000000, 82.266, -156.5437
40.599998, 82.296, -156.8199
41.200001, 82.337, -157.1187
41.799999, 82.376, -157.5279
42.500000, 82.427, -158.1286
43.099998, 82.477, -158.7500
43.700001, 82.506, -159.3897
44.400002, 82.507, -159.9178
45.000000, 82.531, -160.2287
45.500000, 82.596, -160.6762
46.200001, 82.712, -161.8415
46.799999, 82.755, -162.9380
47.500000, 82.724, -163.5072
48.200001, 82.695, -163.2583
48.700001, 82.713, -163.1012
49.400002, 82.768, -163.5127
50.000000, 82.799, -164.2736
50.799999, 82.815, -165.0376
51.500000, 82.834, -165.2496
52.200001, 82.851, -165.4623
53.000000, 82.834, -166.0171
53.799999, 82.811, -166.6458
54.500000, 82.826, -167.1071
55.200001, 82.860, -167.5867
56.000000, 82.878, -168.1878
57.000000, 82.879, -168.7202
58.000000, 82.906, -168.9134
59.000000, 82.930, -169.2829
60.000000, 82.921, -170.1188
60.799999, 82.917, -170.8843
61.500000, 82.925, -171.4308
62.200001, 82.932, -171.8282
63.000000, 82.932, -172.2304
64.000000, 82.926, -172.8599
65.000000, 82.917, -173.4987
66.000000, 82.915, -174.0413
67.000000, 82.909, -174.6368
68.000000, 82.902, -175.1839
69.000000, 82.910, -175.6084
70.000000, 82.916, -176.0689
71.000000, 82.910, -176.6305
72.000000, 82.894, -177.2615
73.000000, 82.871, -177.8533
74.000000, 82.852, -178.3592
75.000000, 82.836, -178.8578
76.199997, 82.812, -179.4640
77.500000, 82.786, 179.8761
78.800003, 82.760, 179.2431
80.000000, 82.736, 178.6501
81.199997, 82.710, 178.0306
82.500000, 82.677, 177.4216
83.800003, 82.638, 176.8335
85.000000, 82.604, 176.2689
86.199997, 82.578, 175.7136
87.500000, 82.543, 175.1531
88.500000, 82.513, 174.7812
90.000000, 82.460, 174.2124
91.199997, 82.408, 173.7175
92.500000, 82.362, 173.1653
93.800003, 82.321, 172.6340
95.000000, 82.280, 172.1560
96.199997, 82.241, 171.6706
97.500000, 82.193, 171.1615
98.800003, 82.137, 170.7009
100.000000, 82.089, 170.2735
101.500000, 82.029, 169.7088
103.000000, 81.961, 169.1205
104.400002, 81.900, 168.6476
106.000000, 81.831, 168.1927
107.500000, 81.764, 167.7425
109.000000, 81.697, 167.2524
110.599998, 81.623, 166.7459
112.000000, 81.555, 166.3138
113.800003, 81.466, 165.7626
115.000000, 81.404, 165.4278
117.199997, 81.286, 164.8432
118.000000, 81.244, 164.6262
120.599998, 81.111, 163.9510
122.000000, 81.036, 163.6338
124.099998, 80.925, 163.1659
125.000000, 80.877, 162.9658
126.500000, 80.793, 162.6069
128.000000, 80.708, 162.2547
131.500000, 80.501, 161.5451
132.000000, 80.470, 161.4542
134.000000, 80.353, 161.1309
136.000000, 80.233, 160.8210
138.000000, 80.109, 160.4649
140.000000, 79.987, 160.1324
143.000000, 79.808, 159.7107
145.000000, 79.691, 159.4769
147.500000, 79.531, 159.2048
150.000000, 79.362, 158.9533
152.500000, 79.190, 158.7027
155.000000, 79.029, 158.5135
157.500000, 78.875, 158.4445
160.000000, 78.724, 158.4180
162.500000, 78.560, 158.2795
165.000000, 78.384, 158.1640
167.500000, 78.216, 158.1498
170.000000, 78.051, 158.1947
172.500000, 77.885, 158.3571
175.000000, 77.719, 158.4773
177.500000, 77.551, 158.5983
180.000000, 77.383, 158.7540
182.500000, 77.212, 158.9291
185.000000, 77.043, 159.1528
187.500000, 76.873, 159.4268
190.000000, 76.698, 159.7226
192.500000, 76.527, 160.0880
195.000000, 76.367, 160.5159
197.500000, 76.213, 160.8729
200.000000, 76.055, 161.2439
203.000000, 75.868, 161.7827
206.000000, 75.685, 162.4371
209.000000, 75.497, 163.1649
212.000000, 75.317, 163.9546
214.000000, 75.200, 164.4778
218.000000, 74.968, 165.5629
220.000000, 74.856, 166.1620
224.000000, 74.647, 167.3525
227.000000, 74.494, 168.2303
230.000000, 74.332, 169.2319
233.000000, 74.198, 170.3085
236.000000, 74.078, 171.3716
240.000000, 73.909, 172.7920
243.000000, 73.779, 173.8983
247.000000, 73.616, 175.4461
250.000000, 73.519, 176.6733
254.000000, 73.415, 178.1938
258.000000, 73.313, 179.7056
262.000000, 73.211, -178.7351
265.000000, 73.139, -177.5384
269.000000, 73.061, -175.9284
272.000000, 73.016, -174.7457
276.000000, 72.973, -173.1728
280.000000, 72.925, -171.5947
285.000000, 72.867, -169.6164
290.000000, 72.868, -167.8112
295.000000, 72.870, -166.0911
300.000000, 72.863, -164.2264
304.000000, 72.867, -162.8280
307.000000, 72.874, -161.8540
311.000000, 72.898, -160.6029
315.000000, 72.934, -159.3777
320.000000, 72.970, -157.8775
325.000000, 73.007, -156.3582
330.000000, 73.061, -154.9495
335.000000, 73.115, -153.6218
340.000000, 73.172, -152.3434
345.000000, 73.237, -151.1831
350.000000, 73.310, -150.0482
355.000000, 73.376, -148.9489
360.000000, 73.437, -147.8953
365.000000, 73.508, -146.8535
370.000000, 73.582, -145.8300
375.000000, 73.650, -144.8732
382.000000, 73.745, -143.6698
387.000000, 73.810, -142.8231
395.000000, 73.910, -141.5233
400.000000, 73.975, -140.7798
406.000000, 74.056, -139.9166
412.000000, 74.135, -139.0031
418.000000, 74.206, -138.1326
425.000000, 74.289, -137.1792
431.000000, 74.367, -136.3471
437.000000, 74.438, -135.6137
444.000000, 74.515, -134.8769
450.000000, 74.586, -134.2658
455.000000, 74.641, -133.7600
462.000000, 74.717, -133.0649
468.000000, 74.776, -132.4735
475.000000, 74.839, -131.7943
482.000000, 74.899, -131.1378
487.000000, 74.939, -130.6919
494.000000, 74.991, -130.0421
500.000000, 75.039, -129.4724
508.000000, 75.102, -128.7525
515.000000, 75.150, -128.1442
522.000000, 75.195, -127.5278
530.000000, 75.248, -126.8362
538.000000, 75.297, -126.1599
545.000000, 75.334, -125.5621
552.000000, 75.369, -124.9846
560.000000, 75.413, -124.3018
570.000000, 75.465, -123.4441
580.000000, 75.518, -122.6624
590.000000, 75.566, -121.9156
600.000000, 75.613, -121.1167
608.000000, 75.652, -120.4803
615.000000, 75.682, -119.9340
622.000000, 75.706, -119.3817
630.000000, 75.734, -118.7321
640.000000, 75.781, -117.9598
650.000000, 75.822, -117.3088
660.000000, 75.833, -116.7224
670.000000, 75.813, -115.9925
680.000000, 75.800, -114.8920
690.000000, 75.831, -113.6683
700.000000, 75.888, -112.6060
710.000000, 75.945, -111.6654
720.000000, 75.993, -110.7771
730.000000, 76.039, -109.9152
740.000000, 76.086, -109.0595
750.000000, 76.129, -108.2009
762.000000, 76.178, -107.1279
775.000000, 76.235, -106.0049
788.000000, 76.293, -104.8810
800.000000, 76.344, -103.8260
812.000000, 76.396, -102.7718
825.000000, 76.459, -101.6259
838.000000, 76.526, -100.4875
850.000000, 76.593, -99.4098
862.000000, 76.662, -98.3277
875.000000, 76.739, -97.1678
885.000000, 76.801, -96.3038
900.000000, 76.900, -95.0300
912.000000, 76.982, -93.9971
925.000000, 77.075, -92.8683
938.000000, 77.178, -91.7699
950.000000, 77.273, -90.8176
962.000000, 77.367, -89.8804
975.000000, 77.474, -88.8871
988.000000, 77.581, -87.9342
1000.000000, 77.681, -87.0819
1015.000000, 77.819, -86.0314
1030.000000, 77.957, -85.0244
1044.000000, 78.086, -84.1141
1060.000000, 78.238, -83.1065
1075.000000, 78.378, -82.2675
1090.000000, 78.516, -81.5042
1106.000000, 78.668, -80.7319
1120.000000, 78.797, -80.0926
1138.000000, 78.956, -79.3289
1150.000000, 79.060, -78.8532
1172.000000, 79.243, -78.0495
1180.000000, 79.307, -77.7738
1206.000000, 79.504, -76.9417
1220.000000, 79.603, -76.4991
1241.000000, 79.748, -75.8573
1250.000000, 79.808, -75.5761
1265.000000, 79.905, -75.1206
1280.000000, 80.000, -74.6936
1315.000000, 80.208, -73.7423
1320.000000, 80.237, -73.6018
1340.000000, 80.348, -73.0410
1360.000000, 80.455, -72.4942
1380.000000, 80.556, -71.9535
1400.000000, 80.654, -71.4269
1430.000000, 80.798, -70.6293
1450.000000, 80.888, -70.0863
1475.000000, 80.999, -69.4177
1500.000000, 81.106, -68.7453
1525.000000, 81.212, -68.0525
1550.000000, 81.318, -67.3479
1575.000000, 81.424, -66.6475
1600.000000, 81.527, -65.9537
1625.000000, 81.628, -65.2625
1650.000000, 81.728, -64.5602
1675.000000, 81.830, -63.8756
1700.000000, 81.933, -63.1972
1725.000000, 82.040, -62.5077
1750.000000, 82.149, -61.8268
1775.000000, 82.255, -61.1599
1800.000000, 82.362, -60.5131
1825.000000, 82.471, -59.8797
1850.000000, 82.583, -59.2626
1875.000000, 82.697, -58.6568
1900.000000, 82.812, -58.0653
1925.000000, 82.927, -57.5075
1950.000000, 83.043, -56.9799
1975.000000, 83.159, -56.4720
2000.000000, 83.277, -55.9846
2030.000000, 83.417, -55.4256
2060.000000, 83.556, -54.9139
2090.000000, 83.695, -54.4547
2120.000000, 83.834, -54.0241
2140.000000, 83.926, -53.7582
2180.000000, 84.111, -53.2733
2200.000000, 84.201, -53.0590
2240.000000, 84.383, -52.6804
2270.000000, 84.519, -52.4284
2300.000000, 84.653, -52.2139
2330.000000, 84.786, -52.0482
2360.000000, 84.917, -51.9280
2400.000000, 85.089, -51.8362
2430.000000, 85.215, -51.8163
2470.000000, 85.380, -51.8419
2500.000000, 85.499, -51.9140
2540.000000, 85.653, -52.0927
2580.000000, 85.800, -52.3570
2620.000000, 85.938, -52.7236
2650.000000, 86.035, -53.0724
2690.000000, 86.152, -53.6067
2720.000000, 86.233, -54.0546
2760.000000, 86.330, -54.7174
2800.000000, 86.412, -55.4611
2850.000000, 86.490, -56.4602
2900.000000, 86.543, -57.5397
2950.000000, 86.565, -58.7078
3000.000000, 86.555, -59.9284
3040.000000, 86.520, -60.9472
3070.000000, 86.475, -61.7465
3110.000000, 86.376, -62.8813
3150.000000, 86.190, -63.9722
3200.000000, 85.825, -63.8624
3250.000000, 85.825, -61.5601
3300.000000, 86.042, -62.5018
3350.000000, 85.974, -64.3233
3400.000000, 85.789, -65.4967
3450.000000, 85.582, -66.2758
3500.000000, 85.366, -66.8207
3550.000000, 85.144, -67.1813
3600.000000, 84.915, -67.3887
3650.000000, 84.684, -67.4599
3700.000000, 84.450, -67.4215
3750.000000, 84.215, -67.2783
3820.000000, 83.886, -66.8880
3870.000000, 83.654, -66.4909
3950.000000, 83.286, -65.6808
4000.000000, 83.059, -65.0522
4060.000000, 82.793, -64.2186
4120.000000, 82.531, -63.2962
4180.000000, 82.274, -62.2818
4250.000000, 81.985, -60.9909
4310.000000, 81.746, -59.8073
4370.000000, 81.513, -58.5569
4440.000000, 81.249, -57.0183
4500.000000, 81.029, -55.6332
4550.000000, 80.852, -54.4465
4620.000000, 80.611, -52.7158
4680.000000, 80.411, -51.1424
4750.000000, 80.188, -49.2182
4820.000000, 79.978, -47.2343
4870.000000, 79.836, -45.7905
4940.000000, 79.649, -43.7149
5000.000000, 79.500, -41.8847
5080.000000, 79.319, -39.3954
5150.000000, 79.181, -37.2034
5220.000000, 79.058, -35.0089
5300.000000, 78.933, -32.5147
5380.000000, 78.828, -29.9964
5450.000000, 78.750, -27.8181
5520.000000, 78.681, -25.7029
5600.000000, 78.615, -23.3411
5700.000000, 78.545, -20.4457
5800.000000, 78.487, -17.6190
5900.000000, 78.436, -14.8306
6000.000000, 78.389, -12.0279
6080.000000, 78.359, -9.8001
6150.000000, 78.339, -7.8593
6220.000000, 78.325, -5.9191
6300.000000, 78.319, -3.6947
6400.000000, 78.322, -0.9121
6500.000000, 78.340, 1.8431
6600.000000, 78.379, 4.6307
6700.000000, 78.437, 7.3800
6800.000000, 78.515, 10.0770
6900.000000, 78.606, 12.7774
7000.000000, 78.719, 15.4578
7100.000000, 78.862, 18.1232
7200.000000, 79.038, 20.7737
7300.000000, 79.249, 23.3448
7400.000000, 79.500, 25.7861
7500.000000, 79.791, 28.0902
7620.000000, 80.194, 30.6110
7750.000000, 80.709, 32.8779
7880.000000, 81.300, 34.5015
8000.000000, 81.902, 35.2312
8120.000000, 82.536, 35.0556
8250.000000, 83.214, 33.7199
8380.000000, 83.827, 31.2154
8500.000000, 84.295, 28.0065
8620.000000, 84.633, 24.0953
8750.000000, 84.826, 19.3267
8850.000000, 84.844, 15.4879
9000.000000, 84.655, 9.8428
9120.000000, 84.337, 5.7175
9250.000000, 83.852, 1.9247
9380.000000, 83.264, -0.9348
9500.000000, 82.687, -2.7312
9620.000000, 82.101, -3.9780
9750.000000, 81.438, -4.4552
9880.000000, 80.857, -3.8259
10000.000000, 80.436, -3.3122
10150.000000, 79.888, -2.8367
10300.000000, 79.337, -1.6331
10440.000000, 78.889, -0.0572
10600.000000, 78.462, 2.0097
10750.000000, 78.140, 4.1168
10900.000000, 77.892, 6.3072
11060.000000, 77.715, 8.5495
11200.000000, 77.634, 10.2603
11380.000000, 77.610, 12.0030
11500.000000, 77.629, 12.8361
11720.000000, 77.708, 13.5728
11800.000000, 77.747, 13.5437
12060.000000, 77.863, 12.1730
12200.000000, 77.876, 10.6145
12410.000000, 77.753, 7.3073
12500.000000, 77.627, 5.6116
12650.000000, 77.306, 2.6144
12800.000000, 76.837, -0.2845
13150.000000, 75.255, -4.9227
13200.000000, 74.992, -5.2408
13400.000000, 73.918, -5.5940
13600.000000, 72.862, -4.6327
13800.000000, 71.869, -2.7332
14000.000000, 70.941, -0.0897
14300.000000, 69.698, 5.1542
14500.000000, 68.994, 9.2433
14750.000000, 68.278, 14.7935
15000.000000, 67.737, 20.7357
15250.000000, 67.365, 27.0216
15500.000000, 67.196, 34.1569
15750.000000, 67.546, 43.2538
16000.000000, 69.005, 50.2015
16250.000000, 70.546, 47.1634
16500.000000, 71.183, 40.6969
16750.000000, 71.694, 35.3168
17000.000000, 72.341, 26.8499
17250.000000, 72.439, 13.5186
17500.000000, 71.424, -1.4588
17750.000000, 69.339, -13.5876
18000.000000, 66.587, -20.6918
18250.000000, 63.591, -22.9447
18500.000000, 60.604, -21.6890
18750.000000, 57.715, -18.6460
19000.000000, 54.833, -14.9316
19250.000000, 51.838, -10.3094
19500.000000, 48.763, -4.9690
19750.000000, 45.791, 0.5620
