* Measurement data measured by REW V5.31.3
* Source: Input device not selected, no input selected, L, volume: no control
* Format: 256k Log Swept Sine, 1 sweep at -12.0 dBFS with no timing reference
* Dated: Sep 6, 2024 4:05:10 PM
* REW Settings:
*  C-weighting compensation: Off
*  Target level: 75.0 dB
* Note: ; 
* Measurement: Chopin (Velvet Wide M)
* Smoothing: 1/24 octave
* Frequency Step: 1/48 octave
* Start Frequency: 20.300 Hz
*
* Freq(Hz), SPL(dB), Phase(degrees)
20.299999, 81.223, -146.1024
20.600000, 81.254, -146.7201
20.900000, 81.302, -147.3522
21.200001, 81.363, -147.9420
21.400000, 81.409, -148.3050
21.799999, 81.504, -148.9489
22.000000, 81.549, -149.2321
22.400000, 81.626, -149.7553
22.700001, 81.668, -150.1600
23.000000, 81.696, -150.6246
23.299999, 81.710, -151.1759
23.600000, 81.713, -151.8106
24.000000, 81.710, -152.7241
24.299999, 81.715, -153.3928
24.700001, 81.743, -154.1822
25.000000, 81.783, -154.6824
25.400000, 81.851, -155.2649
25.799999, 81.916, -155.8293
26.200001, 81.956, -156.4489
26.500000, 81.964, -156.9703
26.900000, 81.952, -157.7339
27.200001, 81.935, -158.3336
27.600000, 81.918, -159.1089
28.000000, 81.918, -159.7721
28.500000, 81.946, -160.3366
29.000000, 81.997, -160.6213
29.500000, 82.050, -160.8305
30.000000, 82.090, -161.2251
30.400000, 82.107, -161.7598
30.700001, 82.115, -162.2709
31.100000, 82.126, -163.0313
31.500000, 82.143, -163.7999
32.000000, 82.173, -164.6785
32.500000, 82.193, -165.4246
33.000000, 82.194, -166.0595
33.500000, 82.189, -166.6723
34.000000, 82.194, -167.3712
34.500000, 82.208, -168.1648
35.000000, 82.216, -168.9047
35.500000, 82.208, -169.4198
36.000000, 82.193, -169.7184
36.500000, 82.182, -170.0119
37.000000, 82.174, -170.4997
37.500000, 82.165, -171.1705
38.200001, 82.165, -172.0790
38.700001, 82.185, -172.5630
39.500000, 82.221, -173.2231
40.000000, 82.219, -173.6814
40.599998, 82.200, -174.2860
41.200001, 82.186, -174.9216
41.799999, 82.179, -175.5442
42.500000, 82.160, -176.1536
43.099998, 82.136, -176.5878
43.700001, 82.119, -177.0962
44.400002, 82.107, -177.8923
45.000000, 82.086, -178.5871
45.500000, 82.064, -179.0315
46.200001, 82.041, -179.4558
46.799999, 82.038, -179.8190
47.500000, 82.041, 179.6104
48.200001, 82.031, 178.9821
48.700001, 82.012, 178.5836
49.400002, 81.974, 178.1027
50.000000, 81.943, 177.6943
50.799999, 81.913, 177.0767
51.500000, 81.892, 176.5035
52.200001, 81.864, 175.9742
53.000000, 81.824, 175.4259
53.799999, 81.784, 174.8651
54.500000, 81.754, 174.3506
55.200001, 81.724, 173.8359
56.000000, 81.676, 173.2732
57.000000, 81.602, 172.7091
58.000000, 81.557, 172.2115
59.000000, 81.524, 171.5343
60.000000, 81.474, 170.9255
60.799999, 81.436, 170.5652
61.500000, 81.402, 170.2154
62.200001, 81.363, 169.7863
63.000000, 81.312, 169.2737
64.000000, 81.246, 168.7941
65.000000, 81.190, 168.4021
66.000000, 81.139, 167.8540
67.000000, 81.085, 167.2771
68.000000, 81.023, 166.7359
69.000000, 80.950, 166.2445
70.000000, 80.898, 165.8491
71.000000, 80.857, 165.4507
72.000000, 80.801, 164.9859
73.000000, 80.736, 164.5153
74.000000, 80.672, 164.2030
75.000000, 80.611, 163.9435
76.199997, 80.527, 163.5077
77.500000, 80.439, 163.0392
78.800003, 80.355, 162.4798
80.000000, 80.285, 161.9781
81.199997, 80.206, 161.5782
82.500000, 80.114, 161.2180
83.800003, 80.024, 160.9146
85.000000, 79.935, 160.5740
86.199997, 79.849, 160.1319
87.500000, 79.764, 159.7294
88.500000, 79.697, 159.4769
90.000000, 79.606, 159.1929
91.199997, 79.536, 158.9147
92.500000, 79.451, 158.5657
93.800003, 79.360, 158.2875
95.000000, 79.268, 158.0690
96.199997, 79.183, 157.8528
97.500000, 79.100, 157.6302
98.800003, 79.008, 157.4285
100.000000, 78.915, 157.2703
101.500000, 78.809, 156.9878
103.000000, 78.720, 156.6939
104.400002, 78.634, 156.4953
106.000000, 78.523, 156.3042
107.500000, 78.408, 156.1461
109.000000, 78.307, 156.0535
110.599998, 78.192, 155.9651
112.000000, 78.088, 155.8520
113.800003, 77.972, 155.7391
115.000000, 77.892, 155.6668
117.199997, 77.732, 155.5399
118.000000, 77.677, 155.5316
120.599998, 77.513, 155.5537
122.000000, 77.420, 155.5108
124.099998, 77.281, 155.5137
125.000000, 77.223, 155.5330
126.500000, 77.119, 155.5638
128.000000, 77.012, 155.5963
131.500000, 76.782, 155.7969
132.000000, 76.750, 155.8325
134.000000, 76.622, 155.8967
136.000000, 76.493, 155.9575
138.000000, 76.367, 156.1347
140.000000, 76.252, 156.4065
143.000000, 76.067, 156.6711
145.000000, 75.947, 156.9245
147.500000, 75.802, 157.3328
150.000000, 75.648, 157.6471
152.500000, 75.492, 157.9713
155.000000, 75.343, 158.3426
157.500000, 75.208, 158.7341
160.000000, 75.079, 159.1974
162.500000, 74.947, 159.7099
165.000000, 74.818, 160.2487
167.500000, 74.698, 160.7000
170.000000, 74.581, 161.2075
172.500000, 74.464, 161.7869
175.000000, 74.344, 162.3183
177.500000, 74.223, 162.8512
180.000000, 74.113, 163.4569
182.500000, 74.009, 164.0682
185.000000, 73.909, 164.7240
187.500000, 73.817, 165.3910
190.000000, 73.727, 166.0914
192.500000, 73.630, 166.7499
195.000000, 73.535, 167.3512
197.500000, 73.457, 167.9499
200.000000, 73.379, 168.5949
203.000000, 73.285, 169.4228
206.000000, 73.199, 170.3567
209.000000, 73.120, 171.2562
212.000000, 73.038, 172.0588
214.000000, 72.985, 172.6001
218.000000, 72.893, 173.6687
220.000000, 72.847, 174.1875
224.000000, 72.755, 175.1971
227.000000, 72.711, 176.0270
230.000000, 72.669, 176.8958
233.000000, 72.612, 177.7335
236.000000, 72.563, 178.5127
240.000000, 72.516, 179.5463
243.000000, 72.482, -179.6717
247.000000, 72.434, -178.5774
250.000000, 72.404, -177.7809
254.000000, 72.367, -176.7407
258.000000, 72.333, -175.7600
262.000000, 72.306, -174.8482
265.000000, 72.290, -174.1646
269.000000, 72.265, -173.2391
272.000000, 72.253, -172.5690
276.000000, 72.244, -171.6778
280.000000, 72.237, -170.7303
285.000000, 72.229, -169.6529
290.000000, 72.222, -168.6548
295.000000, 72.214, -167.6432
300.000000, 72.206, -166.5655
304.000000, 72.211, -165.8038
307.000000, 72.216, -165.2590
311.000000, 72.218, -164.5110
315.000000, 72.225, -163.7981
320.000000, 72.236, -162.9285
325.000000, 72.242, -162.0603
330.000000, 72.253, -161.2168
335.000000, 72.265, -160.4457
340.000000, 72.275, -159.6111
345.000000, 72.285, -158.7766
350.000000, 72.299, -158.0048
355.000000, 72.317, -157.3521
360.000000, 72.335, -156.6401
365.000000, 72.350, -155.8832
370.000000, 72.368, -155.1920
375.000000, 72.385, -154.5205
382.000000, 72.406, -153.5627
387.000000, 72.422, -152.9402
395.000000, 72.437, -151.9652
400.000000, 72.448, -151.3393
406.000000, 72.467, -150.6205
412.000000, 72.486, -149.9189
418.000000, 72.497, -149.1556
425.000000, 72.511, -148.3518
431.000000, 72.528, -147.7150
437.000000, 72.541, -147.1159
444.000000, 72.552, -146.3791
450.000000, 72.561, -145.7260
455.000000, 72.566, -145.1543
462.000000, 72.578, -144.4028
468.000000, 72.596, -143.8041
475.000000, 72.617, -143.1013
482.000000, 72.632, -142.4135
487.000000, 72.640, -141.9305
494.000000, 72.645, -141.2543
500.000000, 72.648, -140.6552
508.000000, 72.650, -139.8268
515.000000, 72.668, -139.1393
522.000000, 72.691, -138.5006
530.000000, 72.705, -137.7285
538.000000, 72.707, -136.9588
545.000000, 72.710, -136.2978
552.000000, 72.715, -135.6638
560.000000, 72.725, -134.9244
570.000000, 72.740, -134.0158
580.000000, 72.755, -133.1280
590.000000, 72.761, -132.2335
600.000000, 72.765, -131.3284
608.000000, 72.769, -130.5912
615.000000, 72.776, -129.9558
622.000000, 72.784, -129.3142
630.000000, 72.790, -128.5658
640.000000, 72.795, -127.6544
650.000000, 72.808, -126.7410
660.000000, 72.815, -125.8015
670.000000, 72.818, -124.9016
680.000000, 72.828, -123.9941
690.000000, 72.842, -123.0284
700.000000, 72.856, -122.1183
710.000000, 72.867, -121.2152
720.000000, 72.879, -120.2421
730.000000, 72.894, -119.2967
740.000000, 72.905, -118.3815
750.000000, 72.921, -117.4542
762.000000, 72.942, -116.3120
775.000000, 72.971, -115.0565
788.000000, 73.001, -113.8340
800.000000, 73.022, -112.6599
812.000000, 73.051, -111.4902
825.000000, 73.091, -110.2076
838.000000, 73.134, -108.9894
850.000000, 73.179, -107.8400
862.000000, 73.228, -106.7007
875.000000, 73.279, -105.5003
885.000000, 73.319, -104.5734
900.000000, 73.389, -103.1790
912.000000, 73.448, -102.0548
925.000000, 73.518, -100.8936
938.000000, 73.594, -99.7345
950.000000, 73.666, -98.6843
962.000000, 73.744, -97.6326
975.000000, 73.834, -96.5087
988.000000, 73.925, -95.4271
1000.000000, 74.009, -94.4739
1015.000000, 74.122, -93.3996
1030.000000, 74.237, -92.3117
1044.000000, 74.343, -91.3286
1060.000000, 74.469, -90.2507
1075.000000, 74.587, -89.2862
1090.000000, 74.706, -88.3973
1106.000000, 74.835, -87.5168
1120.000000, 74.942, -86.7730
1138.000000, 75.075, -85.8427
1150.000000, 75.163, -85.2691
1172.000000, 75.319, -84.2890
1180.000000, 75.375, -83.9413
1206.000000, 75.554, -82.8983
1220.000000, 75.646, -82.3781
1241.000000, 75.774, -81.5977
1250.000000, 75.824, -81.2738
1265.000000, 75.903, -80.7467
1280.000000, 75.980, -80.2130
1315.000000, 76.171, -78.9462
1320.000000, 76.198, -78.7750
1340.000000, 76.299, -78.1063
1360.000000, 76.391, -77.5087
1380.000000, 76.476, -76.9114
1400.000000, 76.558, -76.3153
1430.000000, 76.677, -75.3698
1450.000000, 76.750, -74.7089
1475.000000, 76.840, -73.9022
1500.000000, 76.929, -73.0647
1525.000000, 77.017, -72.2106
1550.000000, 77.102, -71.3771
1575.000000, 77.189, -70.5315
1600.000000, 77.278, -69.6687
1625.000000, 77.367, -68.8148
1650.000000, 77.453, -67.9620
1675.000000, 77.545, -67.1029
1700.000000, 77.642, -66.2388
1725.000000, 77.738, -65.3948
1750.000000, 77.836, -64.5635
1775.000000, 77.938, -63.7383
1800.000000, 78.044, -62.9320
1825.000000, 78.149, -62.1514
1850.000000, 78.256, -61.3750
1875.000000, 78.365, -60.6178
1900.000000, 78.476, -59.8734
1925.000000, 78.591, -59.1645
1950.000000, 78.710, -58.4777
1975.000000, 78.832, -57.8238
2000.000000, 78.954, -57.2131
2030.000000, 79.099, -56.5206
2060.000000, 79.250, -55.8602
2090.000000, 79.402, -55.2561
2120.000000, 79.553, -54.6880
2140.000000, 79.655, -54.3429
2180.000000, 79.864, -53.7538
2200.000000, 79.967, -53.5035
2240.000000, 80.169, -53.0688
2270.000000, 80.321, -52.8084
2300.000000, 80.472, -52.6083
2330.000000, 80.620, -52.4893
2360.000000, 80.765, -52.4429
2400.000000, 80.952, -52.4551
2430.000000, 81.083, -52.5375
2470.000000, 81.249, -52.7620
2500.000000, 81.365, -52.9933
2540.000000, 81.506, -53.3689
2580.000000, 81.635, -53.8274
2620.000000, 81.752, -54.3648
2650.000000, 81.828, -54.8305
2690.000000, 81.905, -55.5244
2720.000000, 81.946, -56.0890
2760.000000, 81.978, -56.8575
2800.000000, 81.985, -57.6143
2850.000000, 81.963, -58.5307
2900.000000, 81.909, -59.3672
2950.000000, 81.822, -60.1026
3000.000000, 81.713, -60.6805
3040.000000, 81.612, -61.0350
3070.000000, 81.529, -61.2289
3110.000000, 81.415, -61.3906
3150.000000, 81.301, -61.4533
3200.000000, 81.160, -61.4258
3250.000000, 81.020, -61.2820
3300.000000, 80.879, -61.0530
3350.000000, 80.739, -60.7437
3400.000000, 80.602, -60.3404
3450.000000, 80.466, -59.8515
3500.000000, 80.332, -59.2714
3550.000000, 80.200, -58.6017
3600.000000, 80.076, -57.8483
3650.000000, 79.961, -57.0149
3700.000000, 79.855, -56.1184
3750.000000, 79.760, -55.1712
3820.000000, 79.651, -53.7942
3870.000000, 79.591, -52.7820
3950.000000, 79.522, -51.1504
4000.000000, 79.496, -50.1654
4060.000000, 79.478, -49.0020
4120.000000, 79.479, -47.9018
4180.000000, 79.495, -46.9280
4250.000000, 79.531, -45.9245
4310.000000, 79.566, -45.2049
4370.000000, 79.603, -44.6442
4440.000000, 79.645, -44.1848
4500.000000, 79.674, -43.9506
4550.000000, 79.691, -43.8617
4620.000000, 79.694, -43.8986
4680.000000, 79.675, -44.0729
4750.000000, 79.620, -44.4023
4820.000000, 79.527, -44.8005
4870.000000, 79.435, -45.1028
4940.000000, 79.267, -45.5132
5000.000000, 79.087, -45.7955
5080.000000, 78.799, -45.9988
5150.000000, 78.507, -45.9609
5220.000000, 78.183, -45.6317
5300.000000, 77.782, -44.8669
5380.000000, 77.368, -43.6661
5450.000000, 77.005, -42.2020
5520.000000, 76.651, -40.3384
5600.000000, 76.280, -37.7571
5700.000000, 75.883, -34.0359
5800.000000, 75.580, -29.8440
5900.000000, 75.393, -25.3402
6000.000000, 75.324, -20.7834
6080.000000, 75.355, -17.2546
6150.000000, 75.436, -14.3755
6220.000000, 75.557, -11.7183
6300.000000, 75.730, -9.0140
6400.000000, 75.975, -6.1556
6500.000000, 76.228, -3.8546
6600.000000, 76.468, -2.0036
6700.000000, 76.678, -0.4546
6800.000000, 76.856, 0.9038
6900.000000, 77.009, 2.2149
7000.000000, 77.146, 3.6240
7100.000000, 77.290, 5.2514
7200.000000, 77.478, 7.0373
7300.000000, 77.720, 8.6881
7400.000000, 78.012, 10.1068
7500.000000, 78.353, 11.2785
7620.000000, 78.834, 12.2630
7750.000000, 79.444, 12.5606
7880.000000, 80.136, 11.6542
8000.000000, 80.807, 9.3343
8120.000000, 81.429, 5.2642
8250.000000, 81.912, -1.1578
8380.000000, 82.047, -9.1538
8500.000000, 81.779, -16.9240
8620.000000, 81.146, -23.9830
8750.000000, 80.153, -29.9594
8850.000000, 79.267, -33.1387
9000.000000, 77.881, -35.6902
9120.000000, 76.799, -36.1375
9250.000000, 75.706, -35.3660
9380.000000, 74.728, -33.6868
9500.000000, 73.919, -31.7032
9620.000000, 73.180, -29.4178
9750.000000, 72.445, -26.6320
9880.000000, 71.782, -23.6203
10000.000000, 71.230, -20.7105
10150.000000, 70.607, -16.9437
10300.000000, 70.040, -13.0629
10440.000000, 69.549, -9.3161
10600.000000, 69.048, -4.8402
10750.000000, 68.640, -0.5061
10900.000000, 68.290, 4.0288
11060.000000, 67.996, 9.1511
11200.000000, 67.834, 13.7119
11380.000000, 67.777, 19.4257
11500.000000, 67.832, 23.0469
11720.000000, 68.106, 28.7317
11800.000000, 68.241, 30.3425
12060.000000, 68.686, 33.7932
12200.000000, 68.890, 34.7807
12410.000000, 69.121, 35.2404
12500.000000, 69.173, 35.0473
12650.000000, 69.176, 34.4004
12800.000000, 69.065, 33.5781
13150.000000, 68.356, 32.2302
13200.000000, 68.206, 32.2070
13400.000000, 67.524, 33.0789
13600.000000, 66.805, 35.9074
13800.000000, 66.232, 40.4014
14000.000000, 65.910, 45.7307
14300.000000, 65.843, 53.4122
14500.000000, 65.990, 57.7086
14750.000000, 66.288, 62.2846
15000.000000, 66.703, 66.4246
15250.000000, 67.328, 70.1829
15500.000000, 68.230, 72.9700
15750.000000, 69.450, 73.8229
16000.000000, 70.904, 71.1541
16250.000000, 72.287, 63.4453
16500.000000, 73.086, 51.1238
16750.000000, 72.898, 37.4746
17000.000000, 71.857, 26.9494
17250.000000, 70.551, 21.5442
17500.000000, 69.490, 19.7229
17750.000000, 68.767, 19.0952
18000.000000, 68.266, 18.9198
18250.000000, 68.033, 19.3756
18500.000000, 68.216, 19.3325
18750.000000, 68.800, 16.5947
19000.000000, 69.509, 8.7152
19250.000000, 69.640, -4.3916
19500.000000, 68.789, -18.9130
19750.000000, 67.171, -31.4886
20000.000000, 65.707, -39.5681
