* Measurement data measured by REW V5.31.3
* Source: Input device not selected, no input selected, L, volume: no control
* Format: 256k Log Swept Sine, 1 sweep at -12.0 dBFS with no timing reference
* Dated: Aug 25, 2024 4:22:55 AM
* REW Settings:
*  C-weighting compensation: Off
*  Target level: 75.0 dB
* Note: ; 
* Measurement: Chopin (Spinfit M)
* Smoothing: 1/24 octave
* Frequency Step: 1/48 octave
* Start Frequency: 20.300 Hz
*
* Freq(Hz), SPL(dB), Phase(degrees)
20.299999, 80.900, -149.5714
20.600000, 80.960, -150.3237
20.900000, 81.019, -151.1050
21.200001, 81.074, -151.8248
21.400000, 81.111, -152.2721
21.799999, 81.192, -153.1445
22.000000, 81.233, -153.5977
22.400000, 81.304, -154.5678
22.700001, 81.338, -155.3200
23.000000, 81.355, -156.0319
23.299999, 81.366, -156.6533
23.600000, 81.383, -157.1751
24.000000, 81.434, -157.8010
24.299999, 81.494, -158.3195
24.700001, 81.578, -159.1748
25.000000, 81.624, -159.9163
25.400000, 81.642, -160.8862
25.799999, 81.624, -161.6483
26.200001, 81.609, -162.1477
26.500000, 81.623, -162.4474
26.900000, 81.681, -162.9660
27.200001, 81.739, -163.5471
27.600000, 81.798, -164.5566
28.000000, 81.809, -165.6239
28.500000, 81.766, -166.6298
29.000000, 81.726, -167.0995
29.500000, 81.754, -167.3695
30.000000, 81.843, -167.9581
30.400000, 81.916, -168.7941
30.700001, 81.953, -169.5674
31.100000, 81.966, -170.6255
31.500000, 81.943, -171.5309
32.000000, 81.891, -172.2838
32.500000, 81.852, -172.6595
33.000000, 81.852, -172.8868
33.500000, 81.891, -173.2166
34.000000, 81.953, -173.7827
34.500000, 82.015, -174.5791
35.000000, 82.059, -175.5189
35.500000, 82.073, -176.5005
36.000000, 82.057, -177.4367
36.500000, 82.019, -178.2569
37.000000, 81.975, -178.9181
37.500000, 81.941, -179.4232
38.200001, 81.927, -179.9708
38.700001, 81.937, 179.6600
39.500000, 81.968, 178.9935
40.000000, 81.994, 178.4926
40.599998, 82.028, 177.7706
41.200001, 82.059, 176.9186
41.799999, 82.075, 175.9985
42.500000, 82.076, 174.9406
43.099998, 82.067, 174.0796
43.700001, 82.049, 173.2520
44.400002, 82.020, 172.3232
45.000000, 81.992, 171.5613
45.500000, 81.969, 170.9530
46.200001, 81.937, 170.1667
46.799999, 81.908, 169.5796
47.500000, 81.878, 168.9567
48.200001, 81.851, 168.2871
48.700001, 81.832, 167.7549
49.400002, 81.805, 167.0024
50.000000, 81.786, 166.4212
50.799999, 81.769, 165.7399
51.500000, 81.754, 165.1687
52.200001, 81.739, 164.6023
53.000000, 81.722, 164.0057
53.799999, 81.701, 163.4927
54.500000, 81.673, 163.0764
55.200001, 81.634, 162.6489
56.000000, 81.575, 162.1636
57.000000, 81.486, 161.5711
58.000000, 81.379, 160.7796
59.000000, 81.280, 159.6742
60.000000, 81.224, 158.4713
60.799999, 81.213, 157.5893
61.500000, 81.221, 156.9552
62.200001, 81.233, 156.5098
63.000000, 81.228, 156.2348
64.000000, 81.153, 156.0028
65.000000, 81.024, 155.4479
66.000000, 80.924, 154.4207
67.000000, 80.896, 153.3016
68.000000, 80.904, 152.5776
69.000000, 80.868, 152.3521
70.000000, 80.758, 152.0654
71.000000, 80.647, 151.1692
72.000000, 80.617, 150.1772
73.000000, 80.603, 149.8043
74.000000, 80.510, 149.5718
75.000000, 80.403, 148.7961
76.199997, 80.365, 147.8664
77.500000, 80.288, 147.4608
78.800003, 80.164, 146.6387
80.000000, 80.109, 145.9746
81.199997, 80.028, 145.5898
82.500000, 79.927, 144.8440
83.800003, 79.851, 144.2267
85.000000, 79.759, 143.7206
86.199997, 79.676, 143.0848
87.500000, 79.589, 142.5711
88.500000, 79.512, 142.1765
90.000000, 79.411, 141.5377
91.199997, 79.322, 141.0899
92.500000, 79.222, 140.5400
93.800003, 79.131, 140.0372
95.000000, 79.045, 139.6109
96.199997, 78.954, 139.1889
97.500000, 78.840, 138.7894
98.800003, 78.722, 138.2895
100.000000, 78.619, 137.8336
101.500000, 78.498, 137.3885
103.000000, 78.375, 137.0186
104.400002, 78.246, 136.7125
106.000000, 78.097, 136.2997
107.500000, 77.954, 135.9852
109.000000, 77.805, 135.8422
110.599998, 77.643, 135.8777
112.000000, 77.497, 135.9236
113.800003, 77.317, 136.2221
115.000000, 77.212, 136.5904
117.199997, 77.061, 137.4769
118.000000, 77.021, 137.8309
120.599998, 77.029, 139.1208
122.000000, 77.125, 139.4576
124.099998, 77.259, 138.9221
125.000000, 77.293, 138.4860
126.500000, 77.314, 137.7048
128.000000, 77.297, 136.9383
131.500000, 77.165, 135.4438
132.000000, 77.139, 135.2643
134.000000, 77.008, 134.6303
136.000000, 76.880, 134.1498
138.000000, 76.771, 133.6428
140.000000, 76.644, 133.3150
143.000000, 76.450, 132.7440
145.000000, 76.326, 132.3683
147.500000, 76.154, 132.0792
150.000000, 75.977, 131.8596
152.500000, 75.818, 131.8085
155.000000, 75.691, 131.9014
157.500000, 75.556, 131.8851
160.000000, 75.406, 131.7504
162.500000, 75.263, 131.7466
165.000000, 75.139, 131.7793
167.500000, 75.026, 131.7760
170.000000, 74.910, 131.8560
172.500000, 74.786, 131.9804
175.000000, 74.668, 132.1493
177.500000, 74.556, 132.3459
180.000000, 74.445, 132.5306
182.500000, 74.331, 132.7238
185.000000, 74.225, 132.9589
187.500000, 74.129, 133.1517
190.000000, 74.033, 133.3629
192.500000, 73.940, 133.6421
195.000000, 73.849, 133.9225
197.500000, 73.759, 134.1734
200.000000, 73.678, 134.4266
203.000000, 73.593, 134.7604
206.000000, 73.505, 135.1302
209.000000, 73.420, 135.5437
212.000000, 73.343, 135.9244
214.000000, 73.294, 136.1665
218.000000, 73.199, 136.6443
220.000000, 73.153, 136.8692
224.000000, 73.067, 137.3220
227.000000, 73.009, 137.7023
230.000000, 72.956, 138.1425
233.000000, 72.907, 138.5724
236.000000, 72.856, 138.9688
240.000000, 72.793, 139.4576
243.000000, 72.754, 139.7835
247.000000, 72.710, 140.2418
250.000000, 72.676, 140.5947
254.000000, 72.635, 141.0538
258.000000, 72.602, 141.5410
262.000000, 72.569, 141.9765
265.000000, 72.546, 142.2943
269.000000, 72.518, 142.7184
272.000000, 72.500, 143.0548
276.000000, 72.489, 143.4745
280.000000, 72.483, 143.8519
285.000000, 72.475, 144.3448
290.000000, 72.467, 144.8268
295.000000, 72.475, 145.1801
300.000000, 72.478, 145.4676
304.000000, 72.485, 145.7074
307.000000, 72.495, 145.8965
311.000000, 72.506, 146.1049
315.000000, 72.507, 146.2856
320.000000, 72.504, 146.5052
325.000000, 72.511, 146.7070
330.000000, 72.520, 146.8774
335.000000, 72.529, 147.0399
340.000000, 72.538, 147.1480
345.000000, 72.549, 147.2762
350.000000, 72.559, 147.4086
355.000000, 72.569, 147.5383
360.000000, 72.578, 147.6424
365.000000, 72.585, 147.7550
370.000000, 72.593, 147.8333
375.000000, 72.602, 147.8976
382.000000, 72.614, 147.9716
387.000000, 72.625, 148.0034
395.000000, 72.640, 148.1095
400.000000, 72.647, 148.1924
406.000000, 72.652, 148.2782
412.000000, 72.659, 148.3432
418.000000, 72.669, 148.3708
425.000000, 72.683, 148.4197
431.000000, 72.689, 148.5040
437.000000, 72.693, 148.5928
444.000000, 72.707, 148.6959
450.000000, 72.726, 148.7996
455.000000, 72.747, 148.8730
462.000000, 72.788, 148.9568
468.000000, 72.829, 148.9811
475.000000, 72.875, 148.9370
482.000000, 72.912, 148.7915
487.000000, 72.932, 148.6791
494.000000, 72.952, 148.5016
500.000000, 72.968, 148.3224
508.000000, 72.990, 148.1225
515.000000, 73.003, 147.9512
522.000000, 73.016, 147.7739
530.000000, 73.030, 147.5796
538.000000, 73.032, 147.4020
545.000000, 73.031, 147.2846
552.000000, 73.038, 147.1815
560.000000, 73.048, 147.0512
570.000000, 73.052, 146.8790
580.000000, 73.054, 146.7308
590.000000, 73.056, 146.6305
600.000000, 73.061, 146.4854
608.000000, 73.066, 146.3977
615.000000, 73.071, 146.3359
622.000000, 73.074, 146.2457
630.000000, 73.075, 146.1414
640.000000, 73.078, 146.0358
650.000000, 73.087, 145.9480
660.000000, 73.097, 145.8882
670.000000, 73.102, 145.8497
680.000000, 73.106, 145.8105
690.000000, 73.112, 145.7661
700.000000, 73.122, 145.7051
710.000000, 73.131, 145.6438
720.000000, 73.143, 145.6069
730.000000, 73.160, 145.6187
740.000000, 73.178, 145.6230
750.000000, 73.191, 145.6124
762.000000, 73.212, 145.6250
775.000000, 73.233, 145.6500
788.000000, 73.264, 145.6544
800.000000, 73.296, 145.6838
812.000000, 73.327, 145.7582
825.000000, 73.364, 145.8478
838.000000, 73.407, 145.9113
850.000000, 73.452, 145.9349
862.000000, 73.499, 145.9758
875.000000, 73.550, 146.0287
885.000000, 73.594, 146.0653
900.000000, 73.667, 146.1497
912.000000, 73.730, 146.2335
925.000000, 73.805, 146.2725
938.000000, 73.886, 146.2571
950.000000, 73.962, 146.2576
962.000000, 74.038, 146.2857
975.000000, 74.123, 146.2929
988.000000, 74.210, 146.2556
1000.000000, 74.290, 146.1883
1015.000000, 74.406, 146.0165
1030.000000, 74.526, 145.7960
1044.000000, 74.635, 145.5754
1060.000000, 74.757, 145.2791
1075.000000, 74.874, 144.9509
1090.000000, 74.993, 144.6096
1106.000000, 75.119, 144.2148
1120.000000, 75.225, 143.8264
1138.000000, 75.359, 143.2743
1150.000000, 75.446, 142.8613
1172.000000, 75.600, 142.0907
1180.000000, 75.655, 141.8003
1206.000000, 75.824, 140.7950
1220.000000, 75.909, 140.2381
1241.000000, 76.032, 139.3767
1250.000000, 76.083, 139.0033
1265.000000, 76.164, 138.3915
1280.000000, 76.242, 137.7802
1315.000000, 76.408, 136.3236
1320.000000, 76.430, 136.1165
1340.000000, 76.518, 135.3140
1360.000000, 76.603, 134.5311
1380.000000, 76.685, 133.7516
1400.000000, 76.762, 132.9559
1430.000000, 76.873, 131.7834
1450.000000, 76.947, 131.0375
1475.000000, 77.038, 130.1373
1500.000000, 77.127, 129.2595
1525.000000, 77.215, 128.4029
1550.000000, 77.301, 127.5550
1575.000000, 77.390, 126.7328
1600.000000, 77.482, 125.9286
1625.000000, 77.571, 125.1443
1650.000000, 77.659, 124.3925
1675.000000, 77.751, 123.6376
1700.000000, 77.846, 122.8652
1725.000000, 77.946, 122.0939
1750.000000, 78.048, 121.3242
1775.000000, 78.152, 120.5637
1800.000000, 78.258, 119.8043
1825.000000, 78.364, 119.0142
1850.000000, 78.473, 118.2181
1875.000000, 78.584, 117.4399
1900.000000, 78.699, 116.6586
1925.000000, 78.813, 115.8551
1950.000000, 78.929, 115.0457
1975.000000, 79.046, 114.2213
2000.000000, 79.165, 113.3652
2030.000000, 79.317, 112.3203
2060.000000, 79.470, 111.2475
2090.000000, 79.624, 110.1576
2120.000000, 79.779, 109.0179
2140.000000, 79.882, 108.2322
2180.000000, 80.090, 106.6302
2200.000000, 80.194, 105.7986
2240.000000, 80.399, 104.0502
2270.000000, 80.550, 102.6933
2300.000000, 80.699, 101.3044
2330.000000, 80.846, 99.8823
2360.000000, 80.991, 98.4346
2400.000000, 81.180, 96.4697
2430.000000, 81.322, 94.9749
2470.000000, 81.514, 92.9299
2500.000000, 81.662, 91.3127
2540.000000, 81.857, 88.9829
2580.000000, 82.034, 86.4527
2620.000000, 82.179, 83.7942
2650.000000, 82.268, 81.7640
2690.000000, 82.362, 79.0537
2720.000000, 82.418, 77.0299
2760.000000, 82.473, 74.3448
2800.000000, 82.508, 71.6784
2850.000000, 82.522, 68.3914
2900.000000, 82.507, 65.1747
2950.000000, 82.464, 62.0685
3000.000000, 82.397, 59.0807
3040.000000, 82.329, 56.7985
3070.000000, 82.270, 55.1445
3110.000000, 82.183, 53.0198
3150.000000, 82.089, 50.9933
3200.000000, 81.961, 48.6098
3250.000000, 81.829, 46.3895
3300.000000, 81.696, 44.3212
3350.000000, 81.562, 42.3973
3400.000000, 81.431, 40.6169
3450.000000, 81.305, 38.9519
3500.000000, 81.184, 37.4044
3550.000000, 81.071, 35.9420
3600.000000, 80.968, 34.5473
3650.000000, 80.874, 33.2209
3700.000000, 80.784, 31.9519
3750.000000, 80.698, 30.7127
3820.000000, 80.578, 29.0592
3870.000000, 80.496, 27.9603
3950.000000, 80.377, 26.3457
4000.000000, 80.312, 25.4303
4060.000000, 80.243, 24.4323
4120.000000, 80.196, 23.5300
4180.000000, 80.180, 22.6491
4250.000000, 80.192, 21.5204
4310.000000, 80.214, 20.4393
4370.000000, 80.242, 19.2679
4440.000000, 80.281, 17.8127
4500.000000, 80.321, 16.4679
4550.000000, 80.354, 15.2476
4620.000000, 80.390, 13.3675
4680.000000, 80.403, 11.6109
4750.000000, 80.390, 9.4512
4820.000000, 80.341, 7.2342
4870.000000, 80.283, 5.6593
4940.000000, 80.169, 3.5040
5000.000000, 80.043, 1.7430
5080.000000, 79.833, -0.4031
5150.000000, 79.617, -2.0550
5220.000000, 79.376, -3.4517
5300.000000, 79.081, -4.6650
5380.000000, 78.780, -5.4097
5450.000000, 78.528, -5.6589
5520.000000, 78.298, -5.5647
5600.000000, 78.076, -5.1072
5700.000000, 77.880, -4.1110
5800.000000, 77.786, -2.8475
5900.000000, 77.801, -1.5465
6000.000000, 77.919, -0.4897
6080.000000, 78.072, 0.0651
6150.000000, 78.232, 0.2676
6220.000000, 78.405, 0.1876
6300.000000, 78.602, -0.2249
6400.000000, 78.826, -1.1226
6500.000000, 79.012, -2.3322
6600.000000, 79.154, -3.6894
6700.000000, 79.255, -5.0297
6800.000000, 79.323, -6.2934
6900.000000, 79.369, -7.4102
7000.000000, 79.408, -8.2405
7100.000000, 79.472, -8.6794
7200.000000, 79.615, -8.9018
7300.000000, 79.852, -9.2964
7400.000000, 80.163, -10.1570
7500.000000, 80.522, -11.6361
7620.000000, 80.973, -14.3793
7750.000000, 81.423, -18.7377
7880.000000, 81.732, -24.5068
8000.000000, 81.815, -30.7043
8120.000000, 81.654, -37.2350
8250.000000, 81.201, -43.9883
8380.000000, 80.506, -49.7581
8500.000000, 79.720, -53.8654
8620.000000, 78.863, -56.6934
8750.000000, 77.921, -58.4255
8850.000000, 77.217, -58.9546
9000.000000, 76.233, -58.6863
9120.000000, 75.520, -57.7364
9250.000000, 74.831, -56.1238
9380.000000, 74.231, -54.1154
9500.000000, 73.752, -52.1418
9620.000000, 73.326, -50.1046
9750.000000, 72.912, -47.7669
9880.000000, 72.544, -45.3224
10000.000000, 72.240, -43.0391
10150.000000, 71.900, -40.1458
10300.000000, 71.594, -37.1620
10440.000000, 71.334, -34.2772
10600.000000, 71.070, -30.7887
10750.000000, 70.867, -27.2394
10900.000000, 70.722, -23.4059
11060.000000, 70.647, -19.0265
11200.000000, 70.670, -15.0392
11380.000000, 70.849, -9.9568
11500.000000, 71.069, -6.8174
11720.000000, 71.649, -2.0908
11800.000000, 71.895, -0.8473
12060.000000, 72.702, 1.3684
12200.000000, 73.110, 1.5942
12410.000000, 73.637, 0.6320
12500.000000, 73.809, -0.2131
12650.000000, 74.012, -2.0042
12800.000000, 74.105, -4.1983
13150.000000, 73.693, -10.3834
13200.000000, 73.538, -11.1707
13400.000000, 72.686, -13.0466
13600.000000, 71.623, -11.5763
13800.000000, 70.712, -6.4811
14000.000000, 70.237, 0.5940
14300.000000, 70.366, 10.6484
14500.000000, 70.816, 15.3651
14750.000000, 71.524, 18.4323
15000.000000, 72.185, 18.5834
15250.000000, 72.627, 16.4213
15500.000000, 72.709, 12.9355
15750.000000, 72.382, 9.6428
16000.000000, 71.744, 7.9570
16250.000000, 70.981, 8.6237
16500.000000, 70.283, 11.6437
16750.000000, 69.812, 16.5793
17000.000000, 69.695, 22.6620
17250.000000, 70.012, 28.4883
17500.000000, 70.696, 32.2147
17750.000000, 71.497, 32.7708
18000.000000, 72.141, 30.5844
18250.000000, 72.518, 26.9998
18500.000000, 72.758, 22.7207
18750.000000, 72.886, 16.7576
19000.000000, 72.776, 8.7189
19250.000000, 72.165, -1.6337
19500.000000, 70.707, -11.9019
19750.000000, 68.607, -19.1147
20000.000000, 66.887, -22.3250
