* Measurement data measured by REW V5.31.3
* Source: Input device not selected, no input selected, L, volume: no control
* Format: 256k Log Swept Sine, 1 sweep at -12.0 dBFS with no timing reference
* Dated: Aug 25, 2024 2:11:46 AM
* REW Settings:
*  C-weighting compensation: Off
*  Target level: 75.0 dB
* Note: ; 
* Measurement: Chopin (Foam)
* Smoothing: 1/24 octave
* Frequency Step: 1/48 octave
* Start Frequency: 20.300 Hz
*
* Freq(Hz), SPL(dB), Phase(degrees)
20.299999, 81.110, -151.0462
20.600000, 81.152, -151.6653
20.900000, 81.195, -152.3275
21.200001, 81.236, -152.9806
21.400000, 81.262, -153.4073
21.799999, 81.315, -154.2396
22.000000, 81.343, -154.6480
22.400000, 81.400, -155.4634
22.700001, 81.443, -156.0870
23.000000, 81.484, -156.7289
23.299999, 81.521, -157.3874
23.600000, 81.551, -158.0528
24.000000, 81.582, -158.9257
24.299999, 81.600, -159.5539
24.700001, 81.624, -160.3465
25.000000, 81.643, -160.9108
25.400000, 81.673, -161.6358
25.799999, 81.706, -162.3427
26.200001, 81.741, -163.0401
26.500000, 81.766, -163.5606
26.900000, 81.798, -164.2576
27.200001, 81.819, -164.7863
27.600000, 81.844, -165.4994
28.000000, 81.864, -166.2132
28.500000, 81.885, -167.0856
29.000000, 81.908, -167.9291
29.500000, 81.936, -168.7650
30.000000, 81.964, -169.6117
30.400000, 81.981, -170.2855
30.700001, 81.990, -170.7747
31.100000, 81.998, -171.3933
31.500000, 82.005, -171.9766
32.000000, 82.016, -172.6890
32.500000, 82.029, -173.4223
33.000000, 82.038, -174.1806
33.500000, 82.044, -174.9315
34.000000, 82.048, -175.6476
34.500000, 82.054, -176.3320
35.000000, 82.063, -177.0064
35.500000, 82.070, -177.6832
36.000000, 82.072, -178.3574
36.500000, 82.071, -179.0188
37.000000, 82.068, -179.6663
37.500000, 82.065, 179.6909
38.200001, 82.063, 178.7849
38.700001, 82.060, 178.1393
39.500000, 82.053, 177.1383
40.000000, 82.048, 176.5325
40.599998, 82.042, 175.8072
41.200001, 82.034, 175.0763
41.799999, 82.023, 174.3571
42.500000, 82.010, 173.5612
43.099998, 82.000, 172.9172
43.700001, 81.990, 172.2913
44.400002, 81.976, 171.5607
45.000000, 81.958, 170.9230
45.500000, 81.941, 170.3816
46.200001, 81.918, 169.6096
46.799999, 81.899, 168.9400
47.500000, 81.879, 168.1764
48.200001, 81.856, 167.4743
48.700001, 81.841, 167.0154
49.400002, 81.821, 166.3950
50.000000, 81.803, 165.8455
50.799999, 81.776, 165.0762
51.500000, 81.747, 164.3934
52.200001, 81.717, 163.7187
53.000000, 81.681, 162.9662
53.799999, 81.644, 162.2455
54.500000, 81.614, 161.6429
55.200001, 81.584, 161.0568
56.000000, 81.548, 160.3975
57.000000, 81.496, 159.5923
58.000000, 81.445, 158.7826
59.000000, 81.398, 157.9307
60.000000, 81.349, 157.0919
60.799999, 81.311, 156.4748
61.500000, 81.279, 155.9671
62.200001, 81.245, 155.4726
63.000000, 81.202, 154.9163
64.000000, 81.145, 154.2215
65.000000, 81.090, 153.4996
66.000000, 81.034, 152.7862
67.000000, 80.978, 152.1054
68.000000, 80.920, 151.4335
69.000000, 80.863, 150.7768
70.000000, 80.806, 150.1063
71.000000, 80.741, 149.4326
72.000000, 80.671, 148.8179
73.000000, 80.609, 148.2328
74.000000, 80.548, 147.6414
75.000000, 80.486, 147.0746
76.199997, 80.414, 146.4077
77.500000, 80.336, 145.6782
78.800003, 80.255, 144.9767
80.000000, 80.174, 144.3761
81.199997, 80.090, 143.7794
82.500000, 80.006, 143.0917
83.800003, 79.927, 142.4405
85.000000, 79.854, 141.8976
86.199997, 79.774, 141.3628
87.500000, 79.687, 140.7708
88.500000, 79.621, 140.3168
90.000000, 79.519, 139.6566
91.199997, 79.435, 139.1329
92.500000, 79.344, 138.5879
93.800003, 79.255, 138.0863
95.000000, 79.174, 137.6264
96.199997, 79.092, 137.2003
97.500000, 79.006, 136.7647
98.800003, 78.921, 136.2780
100.000000, 78.840, 135.8357
101.500000, 78.740, 135.3553
103.000000, 78.637, 134.9062
104.400002, 78.541, 134.4969
106.000000, 78.430, 134.0306
107.500000, 78.325, 133.6313
109.000000, 78.221, 133.2368
110.599998, 78.110, 132.8198
112.000000, 78.015, 132.4545
113.800003, 77.894, 131.9970
115.000000, 77.813, 131.7100
117.199997, 77.667, 131.2328
118.000000, 77.616, 131.0832
120.599998, 77.442, 130.5654
122.000000, 77.347, 130.2926
124.099998, 77.208, 129.9281
125.000000, 77.149, 129.7850
126.500000, 77.053, 129.5807
128.000000, 76.957, 129.3960
131.500000, 76.736, 128.9113
132.000000, 76.705, 128.8532
134.000000, 76.581, 128.6534
136.000000, 76.456, 128.4468
138.000000, 76.333, 128.2631
140.000000, 76.211, 128.1539
143.000000, 76.027, 127.9736
145.000000, 75.911, 127.8513
147.500000, 75.771, 127.7477
150.000000, 75.627, 127.6419
152.500000, 75.490, 127.5830
155.000000, 75.356, 127.6113
157.500000, 75.229, 127.6649
160.000000, 75.098, 127.7041
162.500000, 74.975, 127.7086
165.000000, 74.854, 127.6985
167.500000, 74.737, 127.8044
170.000000, 74.622, 127.9406
172.500000, 74.512, 128.0514
175.000000, 74.401, 128.2264
177.500000, 74.291, 128.4061
180.000000, 74.189, 128.5603
182.500000, 74.091, 128.7360
185.000000, 73.995, 128.9564
187.500000, 73.903, 129.1751
190.000000, 73.814, 129.3929
192.500000, 73.734, 129.6240
195.000000, 73.659, 129.8221
197.500000, 73.584, 130.0186
200.000000, 73.507, 130.2637
203.000000, 73.421, 130.5748
206.000000, 73.339, 130.8737
209.000000, 73.258, 131.2169
212.000000, 73.184, 131.5376
214.000000, 73.141, 131.7432
218.000000, 73.061, 132.1312
220.000000, 73.022, 132.3214
224.000000, 72.958, 132.7617
227.000000, 72.911, 133.0579
230.000000, 72.856, 133.3500
233.000000, 72.806, 133.6847
236.000000, 72.763, 134.0525
240.000000, 72.714, 134.4933
243.000000, 72.679, 134.7729
247.000000, 72.639, 135.0717
250.000000, 72.614, 135.3203
254.000000, 72.585, 135.6572
258.000000, 72.561, 135.9742
262.000000, 72.536, 136.2954
265.000000, 72.521, 136.5551
269.000000, 72.503, 136.8486
272.000000, 72.490, 137.0614
276.000000, 72.479, 137.3296
280.000000, 72.470, 137.5495
285.000000, 72.458, 137.7472
290.000000, 72.446, 137.9679
295.000000, 72.440, 138.1993
300.000000, 72.446, 138.4368
304.000000, 72.452, 138.6378
307.000000, 72.451, 138.7714
311.000000, 72.449, 138.8546
315.000000, 72.454, 138.9188
320.000000, 72.463, 139.0508
325.000000, 72.467, 139.1439
330.000000, 72.482, 139.2311
335.000000, 72.499, 139.2767
340.000000, 72.514, 139.3002
345.000000, 72.524, 139.3528
350.000000, 72.533, 139.3742
355.000000, 72.539, 139.3653
360.000000, 72.550, 139.3513
365.000000, 72.571, 139.3311
370.000000, 72.590, 139.3051
375.000000, 72.603, 139.2575
382.000000, 72.623, 139.1227
387.000000, 72.642, 139.0610
395.000000, 72.660, 138.9037
400.000000, 72.670, 138.7906
406.000000, 72.685, 138.6755
412.000000, 72.703, 138.5750
418.000000, 72.722, 138.4506
425.000000, 72.737, 138.2270
431.000000, 72.745, 138.0546
437.000000, 72.754, 137.9045
444.000000, 72.771, 137.6585
450.000000, 72.790, 137.4723
455.000000, 72.802, 137.3215
462.000000, 72.813, 137.0909
468.000000, 72.823, 136.8856
475.000000, 72.833, 136.6379
482.000000, 72.852, 136.4184
487.000000, 72.863, 136.2563
494.000000, 72.872, 136.0072
500.000000, 72.881, 135.8009
508.000000, 72.891, 135.4683
515.000000, 72.901, 135.1915
522.000000, 72.910, 134.9241
530.000000, 72.922, 134.6868
538.000000, 72.938, 134.4159
545.000000, 72.945, 134.1031
552.000000, 72.951, 133.7832
560.000000, 72.964, 133.4926
570.000000, 72.973, 133.1459
580.000000, 72.980, 132.7114
590.000000, 72.988, 132.3263
600.000000, 72.993, 131.9307
608.000000, 73.006, 131.6510
615.000000, 73.018, 131.4397
622.000000, 73.025, 131.2092
630.000000, 73.032, 130.9201
640.000000, 73.041, 130.5844
650.000000, 73.049, 130.2755
660.000000, 73.059, 129.9523
670.000000, 73.069, 129.6099
680.000000, 73.081, 129.2969
690.000000, 73.086, 129.0139
700.000000, 73.096, 128.7043
710.000000, 73.112, 128.3940
720.000000, 73.127, 128.1153
730.000000, 73.141, 127.8702
740.000000, 73.153, 127.6143
750.000000, 73.166, 127.3596
762.000000, 73.191, 127.0262
775.000000, 73.222, 126.7164
788.000000, 73.250, 126.4362
800.000000, 73.281, 126.1530
812.000000, 73.316, 125.8875
825.000000, 73.351, 125.6255
838.000000, 73.392, 125.3691
850.000000, 73.436, 125.1078
862.000000, 73.485, 124.8912
875.000000, 73.541, 124.6309
885.000000, 73.587, 124.4189
900.000000, 73.660, 124.1100
912.000000, 73.717, 123.8152
925.000000, 73.784, 123.5012
938.000000, 73.858, 123.2155
950.000000, 73.931, 122.9262
962.000000, 74.003, 122.6103
975.000000, 74.087, 122.2605
988.000000, 74.182, 121.9451
1000.000000, 74.274, 121.6062
1015.000000, 74.387, 121.0659
1030.000000, 74.496, 120.5171
1044.000000, 74.602, 119.9896
1060.000000, 74.729, 119.3338
1075.000000, 74.850, 118.6431
1090.000000, 74.968, 117.9483
1106.000000, 75.095, 117.2057
1120.000000, 75.204, 116.5095
1138.000000, 75.339, 115.5122
1150.000000, 75.427, 114.8121
1172.000000, 75.584, 113.4930
1180.000000, 75.640, 113.0012
1206.000000, 75.814, 111.3857
1220.000000, 75.905, 110.5005
1241.000000, 76.036, 109.1650
1250.000000, 76.090, 108.5809
1265.000000, 76.177, 107.6062
1280.000000, 76.261, 106.6331
1315.000000, 76.442, 104.3049
1320.000000, 76.467, 103.9744
1340.000000, 76.558, 102.6678
1360.000000, 76.647, 101.3789
1380.000000, 76.735, 100.0705
1400.000000, 76.821, 98.7868
1430.000000, 76.947, 96.9236
1450.000000, 77.028, 95.6596
1475.000000, 77.126, 94.0880
1500.000000, 77.222, 92.5357
1525.000000, 77.321, 91.0325
1550.000000, 77.416, 89.5627
1575.000000, 77.508, 88.1016
1600.000000, 77.599, 86.6364
1625.000000, 77.693, 85.1974
1650.000000, 77.792, 83.7603
1675.000000, 77.895, 82.3130
1700.000000, 77.999, 80.9049
1725.000000, 78.103, 79.5078
1750.000000, 78.210, 78.0959
1775.000000, 78.318, 76.6765
1800.000000, 78.428, 75.2498
1825.000000, 78.541, 73.8346
1850.000000, 78.655, 72.4083
1875.000000, 78.772, 70.9809
1900.000000, 78.892, 69.5468
1925.000000, 79.015, 68.0848
1950.000000, 79.141, 66.5907
1975.000000, 79.268, 65.0926
2000.000000, 79.398, 63.5940
2030.000000, 79.557, 61.7390
2060.000000, 79.717, 59.8566
2090.000000, 79.875, 57.9456
2120.000000, 80.036, 55.9987
2140.000000, 80.145, 54.6710
2180.000000, 80.364, 51.9662
2200.000000, 80.473, 50.5789
2240.000000, 80.690, 47.7333
2270.000000, 80.850, 45.5555
2300.000000, 81.007, 43.3298
2330.000000, 81.163, 41.0458
2360.000000, 81.317, 38.7191
2400.000000, 81.516, 35.5306
2430.000000, 81.659, 33.0837
2470.000000, 81.837, 29.7495
2500.000000, 81.962, 27.1915
2540.000000, 82.120, 23.7377
2580.000000, 82.265, 20.2062
2620.000000, 82.392, 16.5845
2650.000000, 82.471, 13.8354
2690.000000, 82.556, 10.1488
2720.000000, 82.604, 7.3822
2760.000000, 82.650, 3.6902
2800.000000, 82.676, 0.0233
2850.000000, 82.680, -4.4934
2900.000000, 82.656, -8.9185
2950.000000, 82.605, -13.2349
3000.000000, 82.536, -17.4198
3040.000000, 82.468, -20.6738
3070.000000, 82.410, -23.0414
3110.000000, 82.327, -26.1085
3150.000000, 82.239, -29.0770
3200.000000, 82.124, -32.6525
3250.000000, 82.004, -36.1023
3300.000000, 81.883, -39.4147
3350.000000, 81.762, -42.5966
3400.000000, 81.642, -45.6631
3450.000000, 81.523, -48.5889
3500.000000, 81.412, -51.4074
3550.000000, 81.308, -54.1417
3600.000000, 81.212, -56.7740
3650.000000, 81.123, -59.3081
3700.000000, 81.043, -61.7883
3750.000000, 80.973, -64.2130
3820.000000, 80.894, -67.5258
3870.000000, 80.850, -69.8624
3950.000000, 80.802, -73.5590
4000.000000, 80.784, -75.8630
4060.000000, 80.772, -78.6160
4120.000000, 80.772, -81.3892
4180.000000, 80.786, -84.1982
4250.000000, 80.811, -87.5594
4310.000000, 80.839, -90.5275
4370.000000, 80.871, -93.5754
4440.000000, 80.906, -97.2354
4500.000000, 80.930, -100.4742
4550.000000, 80.942, -103.2377
4620.000000, 80.948, -107.1931
4680.000000, 80.936, -110.6732
4750.000000, 80.897, -114.8029
4820.000000, 80.827, -118.9711
4870.000000, 80.754, -121.9415
4940.000000, 80.622, -126.0431
5000.000000, 80.481, -129.4669
5080.000000, 80.255, -133.8586
5150.000000, 80.021, -137.4642
5220.000000, 79.763, -140.7620
5300.000000, 79.451, -144.1310
5380.000000, 79.133, -147.0771
5450.000000, 78.866, -149.2771
5520.000000, 78.624, -151.1437
5600.000000, 78.390, -152.9277
5700.000000, 78.173, -154.7661
5800.000000, 78.056, -156.4170
5900.000000, 78.045, -158.1457
6000.000000, 78.123, -160.1588
6080.000000, 78.227, -162.1022
6150.000000, 78.328, -164.1005
6220.000000, 78.429, -166.3621
6300.000000, 78.529, -169.2096
6400.000000, 78.610, -173.0226
6500.000000, 78.631, -176.9323
6600.000000, 78.604, 179.2369
6700.000000, 78.546, 175.6357
6800.000000, 78.473, 172.3082
6900.000000, 78.399, 169.2089
7000.000000, 78.337, 166.3879
7100.000000, 78.312, 163.9078
7200.000000, 78.358, 161.6243
7300.000000, 78.483, 159.1620
7400.000000, 78.658, 156.3282
7500.000000, 78.857, 153.1049
7620.000000, 79.111, 148.7219
7750.000000, 79.381, 143.2917
7880.000000, 79.613, 137.1106
8000.000000, 79.753, 130.7381
8120.000000, 79.786, 123.8863
8250.000000, 79.677, 116.2151
8380.000000, 79.405, 108.6514
8500.000000, 79.026, 102.0883
8620.000000, 78.553, 96.1563
8750.000000, 77.975, 90.5378
8850.000000, 77.509, 86.8091
9000.000000, 76.813, 82.0815
9120.000000, 76.280, 78.9651
9250.000000, 75.742, 76.1752
9380.000000, 75.264, 73.8424
9500.000000, 74.884, 71.9431
9620.000000, 74.554, 70.1801
9750.000000, 74.243, 68.3442
9880.000000, 73.972, 66.5394
10000.000000, 73.747, 64.8940
10150.000000, 73.500, 62.8690
10300.000000, 73.274, 60.8256
10440.000000, 73.075, 58.9764
10600.000000, 72.862, 57.0682
10750.000000, 72.685, 55.5516
10900.000000, 72.553, 54.3292
11060.000000, 72.482, 53.3531
11200.000000, 72.508, 52.7084
11380.000000, 72.691, 51.8143
11500.000000, 72.910, 50.9266
11720.000000, 73.478, 48.0529
11800.000000, 73.717, 46.4422
12060.000000, 74.461, 39.0640
12200.000000, 74.783, 33.9868
12410.000000, 75.125, 25.1374
12500.000000, 75.205, 20.9122
12650.000000, 75.227, 13.4009
12800.000000, 75.084, 5.3875
13150.000000, 73.843, -13.5823
13200.000000, 73.543, -15.9481
13400.000000, 72.099, -23.2150
13600.000000, 70.524, -25.8272
13800.000000, 69.265, -24.1238
14000.000000, 68.584, -20.7975
14300.000000, 68.426, -18.3417
14500.000000, 68.570, -19.4109
14750.000000, 68.732, -23.3056
15000.000000, 68.713, -28.8135
15250.000000, 68.465, -34.9678
15500.000000, 68.000, -40.9637
15750.000000, 67.378, -46.0253
16000.000000, 66.676, -49.6874
16250.000000, 65.967, -51.8140
16500.000000, 65.333, -52.5145
16750.000000, 64.864, -51.5742
17000.000000, 64.685, -49.2170
17250.000000, 64.900, -46.3494
17500.000000, 65.537, -44.5491
17750.000000, 66.455, -45.2756
18000.000000, 67.414, -48.3257
18250.000000, 68.473, -51.9404
18500.000000, 69.991, -57.2837
18750.000000, 71.660, -69.4529
19000.000000, 72.816, -88.3141
19250.000000, 73.003, -111.3706
19500.000000, 72.020, -134.7241
19750.000000, 70.187, -155.1998
20000.000000, 68.570, -172.1689
