* Measurement data measured by REW V5.31.3
* Source: Input device not selected, no input selected, L, volume: no control
* Format: 256k Log Swept Sine, 1 sweep at -12.0 dBFS with no timing reference
* Dated: Aug 25, 2024 2:31:20 AM
* REW Settings:
*  C-weighting compensation: Off
*  Target level: 75.0 dB
* Note: ; 
* Measurement: Chopin (Spiral Dots M)
* Smoothing: 1/24 octave
* Frequency Step: 1/48 octave
* Start Frequency: 20.300 Hz
*
* Freq(Hz), SPL(dB), Phase(degrees)
20.299999, 81.002, -150.4151
20.600000, 81.041, -150.9795
20.900000, 81.085, -151.5960
21.200001, 81.128, -152.2341
21.400000, 81.156, -152.6727
21.799999, 81.211, -153.5750
22.000000, 81.237, -154.0312
22.400000, 81.286, -154.9328
22.700001, 81.322, -155.5880
23.000000, 81.358, -156.2222
23.299999, 81.393, -156.8387
23.600000, 81.428, -157.4427
24.000000, 81.471, -158.2337
24.299999, 81.500, -158.8164
24.700001, 81.537, -159.5782
25.000000, 81.564, -160.1408
25.400000, 81.599, -160.8889
25.799999, 81.633, -161.6457
26.200001, 81.665, -162.4131
26.500000, 81.685, -162.9886
26.900000, 81.708, -163.7409
27.200001, 81.724, -164.2857
27.600000, 81.745, -164.9833
28.000000, 81.768, -165.6558
28.500000, 81.800, -166.4800
29.000000, 81.834, -167.2997
29.500000, 81.865, -168.1138
30.000000, 81.891, -168.9139
30.400000, 81.908, -169.5405
30.700001, 81.920, -170.0030
31.100000, 81.934, -170.6124
31.500000, 81.946, -171.2183
32.000000, 81.961, -171.9784
32.500000, 81.973, -172.7443
33.000000, 81.982, -173.5093
33.500000, 81.988, -174.2626
34.000000, 81.994, -174.9994
34.500000, 82.000, -175.7224
35.000000, 82.006, -176.4352
35.500000, 82.011, -177.1367
36.000000, 82.014, -177.8245
36.500000, 82.016, -178.5008
37.000000, 82.015, -179.1705
37.500000, 82.014, -179.8338
38.200001, 82.012, 179.2609
38.700001, 82.012, 178.6371
39.500000, 82.014, 177.6691
40.000000, 82.013, 177.0747
40.599998, 82.006, 176.3685
41.200001, 81.995, 175.6634
41.799999, 81.983, 174.9519
42.500000, 81.968, 174.1273
43.099998, 81.954, 173.4495
43.700001, 81.942, 172.7952
44.400002, 81.929, 172.0181
45.000000, 81.916, 171.3224
45.500000, 81.903, 170.7421
46.200001, 81.884, 169.9808
46.799999, 81.872, 169.3934
47.500000, 81.858, 168.7506
48.200001, 81.839, 168.0939
48.700001, 81.820, 167.5992
49.400002, 81.788, 166.8853
50.000000, 81.763, 166.2825
50.799999, 81.737, 165.5181
51.500000, 81.720, 164.8712
52.200001, 81.702, 164.2156
53.000000, 81.673, 163.4520
53.799999, 81.640, 162.7041
54.500000, 81.614, 162.0719
55.200001, 81.588, 161.4511
56.000000, 81.553, 160.7635
57.000000, 81.502, 159.9406
58.000000, 81.452, 159.0986
59.000000, 81.404, 158.2444
60.000000, 81.359, 157.4368
60.799999, 81.323, 156.8321
61.500000, 81.289, 156.3276
62.200001, 81.253, 155.8246
63.000000, 81.212, 155.2203
64.000000, 81.158, 154.4283
65.000000, 81.099, 153.6635
66.000000, 81.041, 152.9625
67.000000, 80.989, 152.2939
68.000000, 80.940, 151.6287
69.000000, 80.884, 150.9853
70.000000, 80.822, 150.3340
71.000000, 80.759, 149.6425
72.000000, 80.700, 148.9493
73.000000, 80.642, 148.2860
74.000000, 80.580, 147.6816
75.000000, 80.519, 147.1207
76.199997, 80.448, 146.4224
77.500000, 80.368, 145.6889
78.800003, 80.288, 145.0044
80.000000, 80.208, 144.3692
81.199997, 80.128, 143.7139
82.500000, 80.047, 142.9960
83.800003, 79.966, 142.3288
85.000000, 79.884, 141.7755
86.199997, 79.798, 141.2260
87.500000, 79.709, 140.6134
88.500000, 79.645, 140.1585
90.000000, 79.553, 139.5080
91.199997, 79.475, 138.9992
92.500000, 79.384, 138.4573
93.800003, 79.293, 137.9354
95.000000, 79.213, 137.4595
96.199997, 79.137, 136.9673
97.500000, 79.053, 136.4677
98.800003, 78.963, 136.0010
100.000000, 78.877, 135.5799
101.500000, 78.780, 135.0766
103.000000, 78.683, 134.6218
104.400002, 78.588, 134.1532
106.000000, 78.481, 133.5944
107.500000, 78.380, 133.1429
109.000000, 78.275, 132.7400
110.599998, 78.165, 132.2991
112.000000, 78.074, 131.9276
113.800003, 77.956, 131.4913
115.000000, 77.872, 131.1824
117.199997, 77.721, 130.6413
118.000000, 77.668, 130.4794
120.599998, 77.493, 129.9851
122.000000, 77.403, 129.7112
124.099998, 77.272, 129.3082
125.000000, 77.215, 129.1422
126.500000, 77.119, 128.8817
128.000000, 77.022, 128.6543
131.500000, 76.801, 128.1887
132.000000, 76.769, 128.1253
134.000000, 76.643, 127.8768
136.000000, 76.525, 127.6742
138.000000, 76.406, 127.4295
140.000000, 76.287, 127.2308
143.000000, 76.102, 126.9969
145.000000, 75.979, 126.9136
147.500000, 75.831, 126.7901
150.000000, 75.691, 126.6195
152.500000, 75.549, 126.5187
155.000000, 75.409, 126.4693
157.500000, 75.266, 126.4701
160.000000, 75.124, 126.5072
162.500000, 75.004, 126.5207
165.000000, 74.892, 126.5563
167.500000, 74.779, 126.6420
170.000000, 74.661, 126.6983
172.500000, 74.549, 126.7891
175.000000, 74.441, 126.9622
177.500000, 74.334, 127.1020
180.000000, 74.231, 127.2381
182.500000, 74.126, 127.4042
185.000000, 74.022, 127.5799
187.500000, 73.928, 127.7666
190.000000, 73.841, 127.9343
192.500000, 73.755, 128.1244
195.000000, 73.675, 128.3233
197.500000, 73.598, 128.5488
200.000000, 73.520, 128.7828
203.000000, 73.433, 129.0243
206.000000, 73.348, 129.3537
209.000000, 73.268, 129.6984
212.000000, 73.196, 130.0052
214.000000, 73.148, 130.1747
218.000000, 73.049, 130.5318
220.000000, 73.008, 130.7188
224.000000, 72.943, 131.1295
227.000000, 72.894, 131.4269
230.000000, 72.844, 131.6804
233.000000, 72.799, 131.9576
236.000000, 72.753, 132.2329
240.000000, 72.691, 132.5813
243.000000, 72.658, 132.8427
247.000000, 72.616, 133.2099
250.000000, 72.583, 133.4528
254.000000, 72.550, 133.7903
258.000000, 72.522, 134.0461
262.000000, 72.489, 134.3434
265.000000, 72.463, 134.5941
269.000000, 72.440, 134.8898
272.000000, 72.432, 135.0670
276.000000, 72.419, 135.2769
280.000000, 72.407, 135.4533
285.000000, 72.403, 135.7487
290.000000, 72.393, 136.0234
295.000000, 72.378, 136.2642
300.000000, 72.380, 136.4822
304.000000, 72.383, 136.6110
307.000000, 72.381, 136.6478
311.000000, 72.371, 136.6909
315.000000, 72.366, 136.7775
320.000000, 72.368, 137.0135
325.000000, 72.371, 137.2771
330.000000, 72.373, 137.3851
335.000000, 72.383, 137.4117
340.000000, 72.400, 137.5087
345.000000, 72.412, 137.6419
350.000000, 72.428, 137.7365
355.000000, 72.451, 137.8400
360.000000, 72.476, 137.9475
365.000000, 72.504, 137.9919
370.000000, 72.535, 137.9849
375.000000, 72.574, 137.9191
382.000000, 72.628, 137.7936
387.000000, 72.660, 137.6650
395.000000, 72.705, 137.3030
400.000000, 72.726, 137.0250
406.000000, 72.751, 136.7421
412.000000, 72.776, 136.4982
418.000000, 72.792, 136.2128
425.000000, 72.804, 135.9001
431.000000, 72.821, 135.6439
437.000000, 72.838, 135.3436
444.000000, 72.852, 135.0002
450.000000, 72.862, 134.7460
455.000000, 72.868, 134.5370
462.000000, 72.877, 134.1882
468.000000, 72.887, 133.8959
475.000000, 72.904, 133.5723
482.000000, 72.920, 133.2839
487.000000, 72.925, 133.0540
494.000000, 72.931, 132.7467
500.000000, 72.933, 132.4745
508.000000, 72.945, 132.0860
515.000000, 72.957, 131.7773
522.000000, 72.967, 131.4749
530.000000, 72.978, 131.1252
538.000000, 72.982, 130.7624
545.000000, 72.985, 130.4326
552.000000, 72.991, 130.1133
560.000000, 72.998, 129.7275
570.000000, 73.007, 129.2997
580.000000, 73.011, 128.8632
590.000000, 73.019, 128.3831
600.000000, 73.023, 127.9506
608.000000, 73.025, 127.6137
615.000000, 73.029, 127.3130
622.000000, 73.036, 127.0350
630.000000, 73.043, 126.7311
640.000000, 73.048, 126.3531
650.000000, 73.056, 125.9633
660.000000, 73.065, 125.5230
670.000000, 73.070, 125.1358
680.000000, 73.079, 124.7468
690.000000, 73.095, 124.3781
700.000000, 73.107, 124.0175
710.000000, 73.111, 123.6747
720.000000, 73.118, 123.3241
730.000000, 73.131, 122.9771
740.000000, 73.148, 122.6480
750.000000, 73.165, 122.3567
762.000000, 73.187, 122.0106
775.000000, 73.208, 121.6088
788.000000, 73.234, 121.2883
800.000000, 73.265, 120.9619
812.000000, 73.299, 120.6238
825.000000, 73.339, 120.2778
838.000000, 73.379, 119.9538
850.000000, 73.421, 119.6528
862.000000, 73.465, 119.3071
875.000000, 73.516, 118.9537
885.000000, 73.563, 118.7009
900.000000, 73.637, 118.3179
912.000000, 73.701, 117.9912
925.000000, 73.775, 117.6259
938.000000, 73.852, 117.2142
950.000000, 73.926, 116.8392
962.000000, 74.006, 116.4841
975.000000, 74.094, 116.0763
988.000000, 74.181, 115.5873
1000.000000, 74.264, 115.0981
1015.000000, 74.379, 114.5226
1030.000000, 74.499, 113.8857
1044.000000, 74.607, 113.2373
1060.000000, 74.732, 112.5003
1075.000000, 74.853, 111.7457
1090.000000, 74.974, 110.9179
1106.000000, 75.098, 109.9856
1120.000000, 75.202, 109.1479
1138.000000, 75.329, 108.0471
1150.000000, 75.413, 107.2923
1172.000000, 75.567, 105.8449
1180.000000, 75.620, 105.3022
1206.000000, 75.779, 103.5882
1220.000000, 75.859, 102.6761
1241.000000, 75.975, 101.2829
1250.000000, 76.024, 100.7027
1265.000000, 76.105, 99.7714
1280.000000, 76.185, 98.8551
1315.000000, 76.399, 96.7749
1320.000000, 76.434, 96.4690
1340.000000, 76.579, 95.1709
1360.000000, 76.726, 93.7144
1380.000000, 76.865, 92.1314
1400.000000, 76.985, 90.5066
1430.000000, 77.132, 88.0577
1450.000000, 77.216, 86.4490
1475.000000, 77.312, 84.5347
1500.000000, 77.402, 82.7319
1525.000000, 77.491, 80.9067
1550.000000, 77.578, 79.0935
1575.000000, 77.665, 77.3744
1600.000000, 77.749, 75.6433
1625.000000, 77.838, 73.9364
1650.000000, 77.928, 72.3125
1675.000000, 78.021, 70.6790
1700.000000, 78.115, 69.0265
1725.000000, 78.211, 67.4055
1750.000000, 78.310, 65.7878
1775.000000, 78.413, 64.1499
1800.000000, 78.517, 62.5295
1825.000000, 78.621, 60.9135
1850.000000, 78.727, 59.2796
1875.000000, 78.840, 57.6682
1900.000000, 78.954, 56.0471
1925.000000, 79.071, 54.3868
1950.000000, 79.191, 52.6935
1975.000000, 79.314, 51.0016
2000.000000, 79.439, 49.3102
2030.000000, 79.584, 47.2530
2060.000000, 79.731, 45.1407
2090.000000, 79.883, 43.0021
2120.000000, 80.036, 40.8336
2140.000000, 80.140, 39.3649
2180.000000, 80.348, 36.3560
2200.000000, 80.454, 34.8166
2240.000000, 80.663, 31.6840
2270.000000, 80.816, 29.3119
2300.000000, 80.967, 26.8862
2330.000000, 81.116, 24.3860
2360.000000, 81.262, 21.8302
2400.000000, 81.450, 18.3601
2430.000000, 81.583, 15.7085
2470.000000, 81.750, 12.0995
2500.000000, 81.868, 9.3293
2540.000000, 82.012, 5.5670
2580.000000, 82.141, 1.7629
2620.000000, 82.257, -2.0936
2650.000000, 82.332, -5.0341
2690.000000, 82.411, -8.9862
2720.000000, 82.455, -11.9583
2760.000000, 82.495, -15.9189
2800.000000, 82.513, -19.8723
2850.000000, 82.509, -24.7694
2900.000000, 82.476, -29.5912
2950.000000, 82.414, -34.2927
3000.000000, 82.326, -38.8521
3040.000000, 82.240, -42.4355
3070.000000, 82.169, -45.0646
3110.000000, 82.067, -48.4678
3150.000000, 81.957, -51.7527
3200.000000, 81.811, -55.6975
3250.000000, 81.659, -59.4860
3300.000000, 81.504, -63.0998
3350.000000, 81.350, -66.5557
3400.000000, 81.197, -69.8719
3450.000000, 81.050, -73.0421
3500.000000, 80.913, -76.0862
3550.000000, 80.783, -79.0193
3600.000000, 80.662, -81.8618
3650.000000, 80.551, -84.6273
3700.000000, 80.453, -87.3091
3750.000000, 80.368, -89.9178
3820.000000, 80.268, -93.4812
3870.000000, 80.211, -96.0178
3950.000000, 80.148, -99.9895
4000.000000, 80.123, -102.4586
4060.000000, 80.109, -105.4763
4120.000000, 80.105, -108.5330
4180.000000, 80.113, -111.6404
4250.000000, 80.138, -115.3788
4310.000000, 80.163, -118.6851
4370.000000, 80.190, -122.0940
4440.000000, 80.217, -126.2023
4500.000000, 80.236, -129.8444
4550.000000, 80.242, -132.9595
4620.000000, 80.229, -137.4016
4680.000000, 80.198, -141.2649
4750.000000, 80.132, -145.8523
4820.000000, 80.027, -150.4838
4870.000000, 79.929, -153.7807
4940.000000, 79.758, -158.3360
5000.000000, 79.581, -162.1224
5080.000000, 79.299, -166.9337
5150.000000, 79.019, -170.8784
5220.000000, 78.716, -174.5229
5300.000000, 78.346, -178.2413
5380.000000, 77.970, 178.5262
5450.000000, 77.650, 176.0960
5520.000000, 77.354, 174.0322
5600.000000, 77.057, 172.0706
5700.000000, 76.763, 170.0741
5800.000000, 76.568, 168.3820
5900.000000, 76.476, 166.7927
6000.000000, 76.489, 165.0831
6080.000000, 76.557, 163.4999
6150.000000, 76.643, 161.8954
6220.000000, 76.746, 160.0359
6300.000000, 76.870, 157.6157
6400.000000, 77.019, 154.2471
6500.000000, 77.135, 150.6163
6600.000000, 77.209, 146.8558
6700.000000, 77.247, 143.1378
6800.000000, 77.258, 139.5927
6900.000000, 77.254, 136.3073
7000.000000, 77.254, 133.3911
7100.000000, 77.299, 130.8677
7200.000000, 77.420, 128.4740
7300.000000, 77.607, 125.9395
7400.000000, 77.847, 123.2422
7500.000000, 78.138, 120.4139
7620.000000, 78.561, 116.7294
7750.000000, 79.118, 112.1201
7880.000000, 79.763, 106.5162
8000.000000, 80.409, 100.1304
8120.000000, 81.047, 92.2934
8250.000000, 81.629, 82.0121
8380.000000, 81.964, 70.0809
8500.000000, 81.957, 58.2447
8620.000000, 81.615, 46.5158
8750.000000, 80.917, 34.8940
8850.000000, 80.218, 27.1310
9000.000000, 79.044, 17.6072
9120.000000, 78.084, 11.6784
9250.000000, 77.095, 6.6583
9380.000000, 76.200, 2.6306
9500.000000, 75.451, -0.5280
9620.000000, 74.769, -3.2767
9750.000000, 74.101, -5.9097
9880.000000, 73.493, -8.2689
10000.000000, 72.977, -10.2449
10150.000000, 72.392, -12.5338
10300.000000, 71.856, -14.5864
10440.000000, 71.393, -16.2647
10600.000000, 70.910, -17.8137
10750.000000, 70.512, -18.8610
10900.000000, 70.177, -19.5256
11060.000000, 69.919, -19.9108
11200.000000, 69.806, -20.1196
11380.000000, 69.820, -20.4053
11500.000000, 69.936, -20.8320
11720.000000, 70.316, -22.8815
11800.000000, 70.477, -24.1193
12060.000000, 70.978, -29.7020
12200.000000, 71.218, -33.4709
12410.000000, 71.499, -40.3617
12500.000000, 71.562, -43.7171
12650.000000, 71.574, -49.5827
12800.000000, 71.474, -55.6217
13150.000000, 70.695, -69.8558
13200.000000, 70.506, -71.7151
13400.000000, 69.571, -77.7390
13600.000000, 68.534, -80.5040
13800.000000, 67.696, -80.2176
14000.000000, 67.213, -78.7030
14300.000000, 67.058, -76.9964
14500.000000, 67.190, -76.4708
14750.000000, 67.545, -76.4021
15000.000000, 68.167, -77.1776
15250.000000, 69.031, -79.4526
15500.000000, 70.073, -83.9631
15750.000000, 71.195, -91.2065
16000.000000, 72.203, -101.7208
16250.000000, 72.826, -115.1066
16500.000000, 72.879, -129.4149
16750.000000, 72.416, -141.8723
17000.000000, 71.738, -150.6492
17250.000000, 71.240, -156.1492
17500.000000, 71.162, -160.6255
17750.000000, 71.396, -166.3638
18000.000000, 71.721, -173.7037
18250.000000, 72.159, 178.0891
18500.000000, 72.749, 166.7732
18750.000000, 72.914, 151.2648
19000.000000, 72.580, 136.2549
19250.000000, 72.219, 119.7609
19500.000000, 71.197, 99.9171
19750.000000, 69.281, 81.8627
20000.000000, 67.594, 66.7954
