* Measurement data measured by REW V5.31.3
* Source: Input device not selected, no input selected, L, volume: no control
* Format: 256k Log Swept Sine, 1 sweep at -12.0 dBFS with no timing reference
* Dated: Aug 25, 2024 2:10:42 AM
* REW Settings:
*  C-weighting compensation: Off
*  Target level: 75.0 dB
* Note: ; 
* Measurement: Chopin (Velvet M)
* Smoothing: 1/24 octave
* Frequency Step: 1/48 octave
* Start Frequency: 20.300 Hz
*
* Freq(Hz), SPL(dB), Phase(degrees)
20.299999, 80.690, -150.4672
20.600000, 80.735, -151.0653
20.900000, 80.781, -151.7165
21.200001, 80.825, -152.3756
21.400000, 80.853, -152.8153
21.799999, 80.905, -153.6838
22.000000, 80.931, -154.1072
22.400000, 80.984, -154.9266
22.700001, 81.026, -155.5227
23.000000, 81.070, -156.1149
23.299999, 81.113, -156.7149
23.600000, 81.154, -157.3287
24.000000, 81.201, -158.1626
24.299999, 81.230, -158.7854
24.700001, 81.262, -159.5891
25.000000, 81.283, -160.1646
25.400000, 81.314, -160.9048
25.799999, 81.349, -161.6400
26.200001, 81.385, -162.3950
26.500000, 81.411, -162.9767
26.900000, 81.442, -163.7574
27.200001, 81.461, -164.3311
27.600000, 81.486, -165.0632
28.000000, 81.511, -165.7561
28.500000, 81.548, -166.5895
29.000000, 81.585, -167.4158
29.500000, 81.615, -168.2378
30.000000, 81.636, -169.0358
30.400000, 81.648, -169.6493
30.700001, 81.655, -170.0986
31.100000, 81.664, -170.6937
31.500000, 81.675, -171.2953
32.000000, 81.688, -172.0628
32.500000, 81.702, -172.8391
33.000000, 81.714, -173.6087
33.500000, 81.725, -174.3603
34.000000, 81.736, -175.0906
34.500000, 81.745, -175.8033
35.000000, 81.753, -176.5045
35.500000, 81.759, -177.1973
36.000000, 81.763, -177.8792
36.500000, 81.765, -178.5468
37.000000, 81.766, -179.2010
37.500000, 81.766, -179.8453
38.200001, 81.766, 179.2665
38.700001, 81.766, 178.6418
39.500000, 81.766, 177.6501
40.000000, 81.763, 177.0359
40.599998, 81.754, 176.3215
41.200001, 81.742, 175.6422
41.799999, 81.734, 174.9785
42.500000, 81.728, 174.1904
43.099998, 81.722, 173.5122
43.700001, 81.712, 172.8621
44.400002, 81.699, 172.1455
45.000000, 81.689, 171.5295
45.500000, 81.679, 170.9861
46.200001, 81.658, 170.1845
46.799999, 81.635, 169.5161
47.500000, 81.612, 168.8195
48.200001, 81.603, 168.1697
48.700001, 81.601, 167.6857
49.400002, 81.592, 166.9771
50.000000, 81.576, 166.3796
50.799999, 81.553, 165.6041
51.500000, 81.534, 164.9051
52.200001, 81.511, 164.2053
53.000000, 81.481, 163.4656
53.799999, 81.454, 162.7634
54.500000, 81.430, 162.1287
55.200001, 81.400, 161.4811
56.000000, 81.361, 160.7637
57.000000, 81.315, 159.9189
58.000000, 81.269, 159.1178
59.000000, 81.221, 158.3209
60.000000, 81.174, 157.4788
60.799999, 81.138, 156.7801
61.500000, 81.104, 156.1848
62.200001, 81.065, 155.6405
63.000000, 81.019, 155.0822
64.000000, 80.962, 154.3930
65.000000, 80.904, 153.6775
66.000000, 80.847, 152.9794
67.000000, 80.793, 152.3177
68.000000, 80.745, 151.6821
69.000000, 80.700, 151.0078
70.000000, 80.645, 150.3288
71.000000, 80.588, 149.7105
72.000000, 80.539, 149.1118
73.000000, 80.493, 148.4863
74.000000, 80.442, 147.8476
75.000000, 80.386, 147.2365
76.199997, 80.320, 146.5305
77.500000, 80.251, 145.7938
78.800003, 80.185, 145.0699
80.000000, 80.115, 144.4023
81.199997, 80.042, 143.8140
82.500000, 79.966, 143.2223
83.800003, 79.879, 142.6013
85.000000, 79.799, 141.9993
86.199997, 79.722, 141.4268
87.500000, 79.637, 140.8744
88.500000, 79.573, 140.4023
90.000000, 79.480, 139.5969
91.199997, 79.407, 139.0339
92.500000, 79.320, 138.4874
93.800003, 79.229, 137.9443
95.000000, 79.150, 137.4130
96.199997, 79.072, 136.9012
97.500000, 78.990, 136.3922
98.800003, 78.912, 135.9407
100.000000, 78.841, 135.5315
101.500000, 78.738, 135.0004
103.000000, 78.633, 134.4822
104.400002, 78.542, 134.0056
106.000000, 78.438, 133.4919
107.500000, 78.338, 133.0430
109.000000, 78.235, 132.5969
110.599998, 78.128, 132.1327
112.000000, 78.036, 131.7643
113.800003, 77.916, 131.2686
115.000000, 77.836, 130.9149
117.199997, 77.692, 130.3395
118.000000, 77.639, 130.1560
120.599998, 77.462, 129.5997
122.000000, 77.367, 129.3029
124.099998, 77.227, 128.8749
125.000000, 77.168, 128.6984
126.500000, 77.072, 128.4364
128.000000, 76.976, 128.1956
131.500000, 76.739, 127.6580
132.000000, 76.706, 127.5863
134.000000, 76.579, 127.3322
136.000000, 76.466, 127.1109
138.000000, 76.357, 126.9594
140.000000, 76.219, 126.7568
143.000000, 76.027, 126.3408
145.000000, 75.912, 126.1301
147.500000, 75.767, 125.9268
150.000000, 75.619, 125.7798
152.500000, 75.466, 125.6652
155.000000, 75.324, 125.5590
157.500000, 75.197, 125.5380
160.000000, 75.050, 125.5341
162.500000, 74.913, 125.5735
165.000000, 74.785, 125.5327
167.500000, 74.665, 125.5574
170.000000, 74.542, 125.6583
172.500000, 74.425, 125.6932
175.000000, 74.319, 125.5588
177.500000, 74.197, 125.7090
180.000000, 74.064, 126.1779
182.500000, 73.948, 126.4439
185.000000, 73.845, 126.5768
187.500000, 73.745, 126.7480
190.000000, 73.630, 127.0070
192.500000, 73.514, 127.2636
195.000000, 73.413, 127.4774
197.500000, 73.322, 127.7532
200.000000, 73.232, 128.0931
203.000000, 73.118, 128.4362
206.000000, 73.009, 128.8132
209.000000, 72.899, 129.3741
212.000000, 72.788, 129.9797
214.000000, 72.720, 130.3675
218.000000, 72.610, 131.3114
220.000000, 72.575, 131.9066
224.000000, 72.564, 133.1452
227.000000, 72.594, 133.8594
230.000000, 72.639, 134.2672
233.000000, 72.680, 134.3938
236.000000, 72.705, 134.4413
240.000000, 72.711, 134.4297
243.000000, 72.692, 134.3718
247.000000, 72.655, 134.3189
250.000000, 72.624, 134.3410
254.000000, 72.581, 134.4490
258.000000, 72.542, 134.6420
262.000000, 72.510, 134.8074
265.000000, 72.491, 134.8878
269.000000, 72.472, 135.0716
272.000000, 72.456, 135.2278
276.000000, 72.437, 135.4200
280.000000, 72.420, 135.6282
285.000000, 72.403, 135.8056
290.000000, 72.393, 135.9990
295.000000, 72.382, 136.1582
300.000000, 72.373, 136.3443
304.000000, 72.368, 136.4653
307.000000, 72.366, 136.5115
311.000000, 72.370, 136.5761
315.000000, 72.373, 136.6482
320.000000, 72.374, 136.7440
325.000000, 72.380, 136.7826
330.000000, 72.390, 136.8004
335.000000, 72.399, 136.7745
340.000000, 72.411, 136.7426
345.000000, 72.420, 136.7687
350.000000, 72.423, 136.7929
355.000000, 72.432, 136.7561
360.000000, 72.447, 136.6692
365.000000, 72.463, 136.6157
370.000000, 72.475, 136.5587
375.000000, 72.485, 136.4681
382.000000, 72.501, 136.3088
387.000000, 72.512, 136.1909
395.000000, 72.531, 136.0713
400.000000, 72.544, 135.9598
406.000000, 72.563, 135.7437
412.000000, 72.584, 135.5959
418.000000, 72.595, 135.4438
425.000000, 72.603, 135.2227
431.000000, 72.619, 135.0341
437.000000, 72.637, 134.8546
444.000000, 72.661, 134.6123
450.000000, 72.680, 134.3730
455.000000, 72.694, 134.1394
462.000000, 72.715, 133.8409
468.000000, 72.726, 133.5625
475.000000, 72.738, 133.2255
482.000000, 72.754, 132.9138
487.000000, 72.762, 132.6963
494.000000, 72.770, 132.4127
500.000000, 72.781, 132.1733
508.000000, 72.798, 131.8067
515.000000, 72.805, 131.4446
522.000000, 72.805, 131.0694
530.000000, 72.811, 130.6407
538.000000, 72.819, 130.2875
545.000000, 72.825, 130.0552
552.000000, 72.831, 129.7921
560.000000, 72.841, 129.4442
570.000000, 72.843, 129.0344
580.000000, 72.841, 128.6223
590.000000, 72.844, 128.1559
600.000000, 72.844, 127.7446
608.000000, 72.841, 127.4550
615.000000, 72.841, 127.1909
622.000000, 72.846, 126.9448
630.000000, 72.851, 126.7192
640.000000, 72.859, 126.4670
650.000000, 72.875, 126.2844
660.000000, 72.898, 126.0503
670.000000, 72.932, 125.8061
680.000000, 72.978, 125.4958
690.000000, 73.021, 125.0721
700.000000, 73.067, 124.5996
710.000000, 73.105, 124.0903
720.000000, 73.132, 123.5920
730.000000, 73.152, 123.1332
740.000000, 73.173, 122.6889
750.000000, 73.188, 122.2610
762.000000, 73.205, 121.7778
775.000000, 73.228, 121.2802
788.000000, 73.247, 120.8569
800.000000, 73.266, 120.4786
812.000000, 73.292, 120.0883
825.000000, 73.327, 119.6868
838.000000, 73.370, 119.3422
850.000000, 73.410, 119.0261
862.000000, 73.452, 118.6849
875.000000, 73.509, 118.3070
885.000000, 73.556, 118.0651
900.000000, 73.630, 117.6387
912.000000, 73.699, 117.2522
925.000000, 73.771, 116.8668
938.000000, 73.845, 116.4562
950.000000, 73.918, 116.0576
962.000000, 73.996, 115.6663
975.000000, 74.084, 115.2105
988.000000, 74.180, 114.7218
1000.000000, 74.274, 114.2557
1015.000000, 74.383, 113.6194
1030.000000, 74.492, 112.9552
1044.000000, 74.596, 112.3181
1060.000000, 74.720, 111.5428
1075.000000, 74.844, 110.7401
1090.000000, 74.970, 109.8997
1106.000000, 75.097, 108.9485
1120.000000, 75.205, 108.0822
1138.000000, 75.342, 106.9366
1150.000000, 75.432, 106.1422
1172.000000, 75.593, 104.6313
1180.000000, 75.650, 104.0715
1206.000000, 75.826, 102.2429
1220.000000, 75.916, 101.2342
1241.000000, 76.047, 99.6772
1250.000000, 76.101, 99.0016
1265.000000, 76.187, 97.8680
1280.000000, 76.269, 96.7457
1315.000000, 76.446, 94.1109
1320.000000, 76.470, 93.7352
1340.000000, 76.564, 92.2353
1360.000000, 76.654, 90.7307
1380.000000, 76.739, 89.2447
1400.000000, 76.819, 87.7837
1430.000000, 76.938, 85.6269
1450.000000, 77.014, 84.1846
1475.000000, 77.100, 82.3750
1500.000000, 77.188, 80.6172
1525.000000, 77.279, 78.9175
1550.000000, 77.369, 77.2078
1575.000000, 77.458, 75.5159
1600.000000, 77.546, 73.8531
1625.000000, 77.635, 72.2074
1650.000000, 77.726, 70.5600
1675.000000, 77.821, 68.9321
1700.000000, 77.915, 67.3171
1725.000000, 78.007, 65.6918
1750.000000, 78.106, 64.0602
1775.000000, 78.208, 62.4568
1800.000000, 78.313, 60.8406
1825.000000, 78.420, 59.2212
1850.000000, 78.528, 57.5861
1875.000000, 78.640, 55.9513
1900.000000, 78.751, 54.3106
1925.000000, 78.864, 52.6660
1950.000000, 78.981, 50.9985
1975.000000, 79.099, 49.3076
2000.000000, 79.221, 47.5971
2030.000000, 79.370, 45.5389
2060.000000, 79.522, 43.4348
2090.000000, 79.676, 41.3077
2120.000000, 79.829, 39.1471
2140.000000, 79.931, 37.6717
2180.000000, 80.138, 34.6881
2200.000000, 80.241, 33.1673
2240.000000, 80.444, 30.0593
2270.000000, 80.595, 27.6663
2300.000000, 80.745, 25.2356
2330.000000, 80.894, 22.7532
2360.000000, 81.038, 20.2135
2400.000000, 81.225, 16.7623
2430.000000, 81.360, 14.1165
2470.000000, 81.532, 10.5090
2500.000000, 81.651, 7.7454
2540.000000, 81.796, 3.9977
2580.000000, 81.927, 0.1836
2620.000000, 82.044, -3.6888
2650.000000, 82.119, -6.6305
2690.000000, 82.201, -10.5825
2720.000000, 82.248, -13.5627
2760.000000, 82.294, -17.5394
2800.000000, 82.319, -21.5054
2850.000000, 82.318, -26.4406
2900.000000, 82.284, -31.2964
2950.000000, 82.223, -36.0582
3000.000000, 82.138, -40.6989
3040.000000, 82.055, -44.3025
3070.000000, 81.984, -46.9351
3110.000000, 81.880, -50.3630
3150.000000, 81.769, -53.6956
3200.000000, 81.620, -57.7060
3250.000000, 81.462, -61.5409
3300.000000, 81.302, -65.1953
3350.000000, 81.140, -68.7018
3400.000000, 80.981, -72.0535
3450.000000, 80.829, -75.2512
3500.000000, 80.682, -78.3252
3550.000000, 80.542, -81.2788
3600.000000, 80.413, -84.0932
3650.000000, 80.296, -86.8140
3700.000000, 80.193, -89.4805
3750.000000, 80.103, -92.0763
3820.000000, 80.001, -95.5817
3870.000000, 79.945, -98.0487
3950.000000, 79.886, -101.9896
4000.000000, 79.865, -104.4701
4060.000000, 79.856, -107.4851
4120.000000, 79.859, -110.5557
4180.000000, 79.873, -113.7015
4250.000000, 79.899, -117.4647
4310.000000, 79.926, -120.7949
4370.000000, 79.958, -124.2426
4440.000000, 79.990, -128.4065
4500.000000, 80.009, -132.0756
4550.000000, 80.016, -135.1994
4620.000000, 80.006, -139.7053
4680.000000, 79.976, -143.6746
4750.000000, 79.910, -148.3665
4820.000000, 79.806, -153.0942
4870.000000, 79.707, -156.4658
4940.000000, 79.531, -161.1374
5000.000000, 79.345, -165.0496
5080.000000, 79.047, -170.0466
5150.000000, 78.745, -174.1216
5220.000000, 78.413, -177.8547
5300.000000, 78.009, 178.3492
5380.000000, 77.597, 175.0460
5450.000000, 77.246, 172.5703
5520.000000, 76.913, 170.4990
5600.000000, 76.568, 168.5934
5700.000000, 76.211, 166.7817
5800.000000, 75.951, 165.3876
5900.000000, 75.806, 164.2311
6000.000000, 75.778, 163.0847
6080.000000, 75.832, 161.9761
6150.000000, 75.922, 160.7969
6220.000000, 76.042, 159.4044
6300.000000, 76.203, 157.5158
6400.000000, 76.417, 154.6656
6500.000000, 76.617, 151.3562
6600.000000, 76.788, 147.7687
6700.000000, 76.921, 144.0572
6800.000000, 77.015, 140.3735
6900.000000, 77.078, 136.7823
7000.000000, 77.126, 133.4384
7100.000000, 77.186, 130.4678
7200.000000, 77.302, 127.7572
7300.000000, 77.481, 125.0393
7400.000000, 77.712, 122.1805
7500.000000, 77.989, 119.1556
7620.000000, 78.388, 115.2691
7750.000000, 78.907, 110.5500
7880.000000, 79.514, 105.0245
8000.000000, 80.128, 98.8568
8120.000000, 80.747, 91.3104
8250.000000, 81.335, 81.4212
8380.000000, 81.712, 69.8611
8500.000000, 81.771, 58.2163
8620.000000, 81.505, 46.4586
8750.000000, 80.877, 34.5731
8850.000000, 80.211, 26.5085
9000.000000, 79.050, 16.4849
9120.000000, 78.077, 10.1811
9250.000000, 77.056, 4.8690
9380.000000, 76.124, 0.7550
9500.000000, 75.348, -2.3801
9620.000000, 74.644, -5.0735
9750.000000, 73.955, -7.6039
9880.000000, 73.334, -9.8126
10000.000000, 72.817, -11.6292
10150.000000, 72.239, -13.7188
10300.000000, 71.720, -15.6369
10440.000000, 71.283, -17.1912
10600.000000, 70.829, -18.7328
10750.000000, 70.459, -19.9294
10900.000000, 70.156, -20.8477
11060.000000, 69.903, -21.4941
11200.000000, 69.767, -21.8480
11380.000000, 69.749, -22.3032
11500.000000, 69.833, -22.7589
11720.000000, 70.155, -24.5388
11800.000000, 70.310, -25.5984
12060.000000, 70.820, -30.6798
12200.000000, 71.063, -34.2437
12410.000000, 71.361, -40.6382
12500.000000, 71.444, -43.7615
12650.000000, 71.496, -49.2690
12800.000000, 71.434, -54.9425
13150.000000, 70.826, -67.9874
13200.000000, 70.682, -69.6859
13400.000000, 69.987, -75.5393
13600.000000, 69.185, -79.1985
13800.000000, 68.475, -80.3524
14000.000000, 68.031, -79.9077
14300.000000, 67.906, -79.1643
14500.000000, 68.079, -79.5702
14750.000000, 68.466, -81.0146
15000.000000, 69.026, -83.2701
15250.000000, 69.784, -86.6768
15500.000000, 70.733, -92.0167
15750.000000, 71.757, -100.3451
16000.000000, 72.615, -112.2618
16250.000000, 72.979, -126.9939
16500.000000, 72.662, -142.0332
16750.000000, 71.776, -154.2681
17000.000000, 70.691, -161.8621
17250.000000, 69.844, -165.4149
17500.000000, 69.463, -167.4235
17750.000000, 69.440, -170.3312
18000.000000, 69.538, -174.1882
18250.000000, 69.834, -176.8140
18500.000000, 70.804, -179.5920
18750.000000, 72.180, 170.9459
19000.000000, 73.259, 154.6466
19250.000000, 73.578, 133.4640
19500.000000, 72.837, 110.8511
19750.000000, 71.248, 90.3567
20000.000000, 69.816, 72.8091
