* Measurement data measured by REW V5.31.3
* Source: Input device not selected, no input selected, L, volume: no control
* Format: 256k Log Swept Sine, 1 sweep at -12.0 dBFS with no timing reference
* Dated: Aug 25, 2024 4:29:53 AM
* REW Settings:
*  C-weighting compensation: Off
*  Target level: 75.0 dB
* Note: ; 
* Measurement: Chopin (Sancai M)
* Smoothing: 1/24 octave
* Frequency Step: 1/48 octave
* Start Frequency: 20.300 Hz
*
* Freq(Hz), SPL(dB), Phase(degrees)
20.299999, 80.072, -144.1277
20.600000, 80.120, -144.7096
20.900000, 80.174, -145.3499
21.200001, 80.229, -146.0110
21.400000, 80.266, -146.4606
21.799999, 80.335, -147.3615
22.000000, 80.367, -147.7998
22.400000, 80.427, -148.6234
22.700001, 80.468, -149.1875
23.000000, 80.510, -149.7186
23.299999, 80.553, -150.2435
23.600000, 80.598, -150.7916
24.000000, 80.658, -151.5927
24.299999, 80.700, -152.2470
24.700001, 80.752, -153.1555
25.000000, 80.787, -153.8283
25.400000, 80.831, -154.6699
25.799999, 80.875, -155.4303
26.200001, 80.920, -156.1272
26.500000, 80.951, -156.6312
26.900000, 80.989, -157.3062
27.200001, 81.013, -157.8237
27.600000, 81.039, -158.5253
28.000000, 81.063, -159.2230
28.500000, 81.097, -160.0604
29.000000, 81.141, -160.8459
29.500000, 81.188, -161.5977
30.000000, 81.231, -162.3548
30.400000, 81.257, -162.9890
30.700001, 81.270, -163.4873
31.100000, 81.280, -164.1752
31.500000, 81.287, -164.8679
32.000000, 81.297, -165.6909
32.500000, 81.317, -166.4279
33.000000, 81.351, -167.0946
33.500000, 81.389, -167.7516
34.000000, 81.416, -168.4432
34.500000, 81.426, -169.1601
35.000000, 81.426, -169.8676
35.500000, 81.427, -170.5553
36.000000, 81.438, -171.2398
36.500000, 81.453, -171.9252
37.000000, 81.466, -172.5872
37.500000, 81.477, -173.2071
38.200001, 81.490, -174.0424
38.700001, 81.495, -174.6547
39.500000, 81.493, -175.6455
40.000000, 81.487, -176.2524
40.599998, 81.482, -176.9872
41.200001, 81.478, -177.7348
41.799999, 81.475, -178.4580
42.500000, 81.479, -179.2564
43.099998, 81.484, -179.9382
43.700001, 81.477, 179.3910
44.400002, 81.462, 178.6846
45.000000, 81.456, 178.1255
45.500000, 81.458, 177.6396
46.200001, 81.452, 176.9172
46.799999, 81.430, 176.3281
47.500000, 81.400, 175.7135
48.200001, 81.382, 175.0809
48.700001, 81.378, 174.5685
49.400002, 81.373, 173.7968
50.000000, 81.365, 173.1511
50.799999, 81.347, 172.3596
51.500000, 81.328, 171.7057
52.200001, 81.307, 171.0609
53.000000, 81.284, 170.3283
53.799999, 81.261, 169.5967
54.500000, 81.237, 168.9613
55.200001, 81.208, 168.3486
56.000000, 81.174, 167.6951
57.000000, 81.140, 166.9113
58.000000, 81.107, 166.0962
59.000000, 81.066, 165.2842
60.000000, 81.020, 164.5018
60.799999, 80.981, 163.8908
61.500000, 80.945, 163.3705
62.200001, 80.913, 162.8545
63.000000, 80.878, 162.2695
64.000000, 80.835, 161.5773
65.000000, 80.792, 160.9026
66.000000, 80.739, 160.2217
67.000000, 80.684, 159.5736
68.000000, 80.629, 158.9159
69.000000, 80.567, 158.2412
70.000000, 80.513, 157.6014
71.000000, 80.466, 156.9927
72.000000, 80.409, 156.4254
73.000000, 80.350, 155.8650
74.000000, 80.297, 155.2993
75.000000, 80.241, 154.8069
76.199997, 80.171, 154.1952
77.500000, 80.095, 153.4410
78.800003, 80.020, 152.7734
80.000000, 79.948, 152.1489
81.199997, 79.879, 151.5411
82.500000, 79.803, 150.9193
83.800003, 79.723, 150.2722
85.000000, 79.650, 149.7249
86.199997, 79.577, 149.2253
87.500000, 79.498, 148.6425
88.500000, 79.438, 148.2092
90.000000, 79.348, 147.6356
91.199997, 79.274, 147.1889
92.500000, 79.186, 146.6973
93.800003, 79.096, 146.2067
95.000000, 79.018, 145.7628
96.199997, 78.941, 145.3077
97.500000, 78.859, 144.8212
98.800003, 78.777, 144.3640
100.000000, 78.697, 143.9857
101.500000, 78.593, 143.6270
103.000000, 78.492, 143.2342
104.400002, 78.398, 142.7982
106.000000, 78.288, 142.3770
107.500000, 78.191, 142.0293
109.000000, 78.098, 141.6475
110.599998, 77.994, 141.2529
112.000000, 77.901, 140.9424
113.800003, 77.783, 140.5521
115.000000, 77.706, 140.3078
117.199997, 77.565, 139.9510
118.000000, 77.513, 139.8222
120.599998, 77.347, 139.3988
122.000000, 77.259, 139.2056
124.099998, 77.125, 138.8908
125.000000, 77.068, 138.7472
126.500000, 76.974, 138.5485
128.000000, 76.882, 138.4165
131.500000, 76.656, 138.1343
132.000000, 76.623, 138.0886
134.000000, 76.499, 137.9008
136.000000, 76.376, 137.7451
138.000000, 76.246, 137.6360
140.000000, 76.121, 137.5482
143.000000, 75.949, 137.4355
145.000000, 75.834, 137.4031
147.500000, 75.696, 137.3343
150.000000, 75.553, 137.3754
152.500000, 75.408, 137.4639
155.000000, 75.273, 137.5875
157.500000, 75.139, 137.7458
160.000000, 74.999, 137.6786
162.500000, 74.866, 137.7711
165.000000, 74.747, 138.0087
167.500000, 74.626, 138.2480
170.000000, 74.510, 138.3921
172.500000, 74.395, 138.5546
175.000000, 74.273, 138.7612
177.500000, 74.153, 138.9915
180.000000, 74.041, 139.2164
182.500000, 73.931, 139.5490
185.000000, 73.829, 139.9139
187.500000, 73.727, 140.2330
190.000000, 73.621, 140.5424
192.500000, 73.515, 140.9333
195.000000, 73.409, 141.3517
197.500000, 73.303, 141.7480
200.000000, 73.197, 142.2001
203.000000, 73.075, 142.8637
206.000000, 72.967, 143.6583
209.000000, 72.876, 144.5339
212.000000, 72.792, 145.5740
214.000000, 72.750, 146.3770
218.000000, 72.732, 147.8356
220.000000, 72.758, 148.4401
224.000000, 72.844, 149.3024
227.000000, 72.900, 149.5962
230.000000, 72.931, 149.7235
233.000000, 72.942, 149.7012
236.000000, 72.941, 149.7217
240.000000, 72.910, 149.9197
243.000000, 72.877, 150.0686
247.000000, 72.833, 150.2915
250.000000, 72.792, 150.4958
254.000000, 72.745, 150.8134
258.000000, 72.712, 151.2014
262.000000, 72.680, 151.6059
265.000000, 72.655, 151.9087
269.000000, 72.628, 152.3541
272.000000, 72.609, 152.6657
276.000000, 72.583, 153.0671
280.000000, 72.560, 153.4774
285.000000, 72.542, 153.9525
290.000000, 72.529, 154.4102
295.000000, 72.520, 154.8244
300.000000, 72.518, 155.2414
304.000000, 72.511, 155.5768
307.000000, 72.506, 155.7949
311.000000, 72.505, 156.0613
315.000000, 72.501, 156.3530
320.000000, 72.502, 156.7081
325.000000, 72.508, 157.0352
330.000000, 72.515, 157.3438
335.000000, 72.528, 157.6161
340.000000, 72.538, 157.9158
345.000000, 72.544, 158.1761
350.000000, 72.552, 158.4329
355.000000, 72.561, 158.7037
360.000000, 72.574, 158.9502
365.000000, 72.587, 159.2164
370.000000, 72.596, 159.4471
375.000000, 72.603, 159.6349
382.000000, 72.613, 159.8575
387.000000, 72.619, 160.0009
395.000000, 72.633, 160.2534
400.000000, 72.646, 160.4373
406.000000, 72.658, 160.5958
412.000000, 72.669, 160.7543
418.000000, 72.687, 160.9221
425.000000, 72.703, 161.1083
431.000000, 72.713, 161.2628
437.000000, 72.723, 161.4000
444.000000, 72.736, 161.5525
450.000000, 72.745, 161.6902
455.000000, 72.751, 161.8010
462.000000, 72.756, 161.9347
468.000000, 72.762, 162.0472
475.000000, 72.765, 162.1725
482.000000, 72.771, 162.2662
487.000000, 72.781, 162.3277
494.000000, 72.793, 162.4228
500.000000, 72.802, 162.5369
508.000000, 72.808, 162.6802
515.000000, 72.808, 162.7986
522.000000, 72.809, 162.8852
530.000000, 72.813, 163.0273
538.000000, 72.816, 163.2065
545.000000, 72.813, 163.3252
552.000000, 72.808, 163.4565
560.000000, 72.806, 163.6538
570.000000, 72.803, 163.9527
580.000000, 72.791, 164.2613
590.000000, 72.781, 164.6013
600.000000, 72.783, 165.0839
608.000000, 72.799, 165.5654
615.000000, 72.826, 165.9772
622.000000, 72.864, 166.3689
630.000000, 72.924, 166.7394
640.000000, 73.016, 166.9673
650.000000, 73.097, 166.9496
660.000000, 73.150, 166.8118
670.000000, 73.177, 166.7008
680.000000, 73.191, 166.6437
690.000000, 73.199, 166.6494
700.000000, 73.201, 166.7156
710.000000, 73.200, 166.8355
720.000000, 73.204, 166.9901
730.000000, 73.209, 167.1837
740.000000, 73.219, 167.4017
750.000000, 73.230, 167.6456
762.000000, 73.241, 167.9427
775.000000, 73.257, 168.3117
788.000000, 73.279, 168.6856
800.000000, 73.304, 169.0217
812.000000, 73.336, 169.3780
825.000000, 73.371, 169.7917
838.000000, 73.410, 170.1963
850.000000, 73.450, 170.5978
862.000000, 73.488, 171.0195
875.000000, 73.536, 171.4587
885.000000, 73.581, 171.7746
900.000000, 73.655, 172.2487
912.000000, 73.712, 172.6307
925.000000, 73.781, 173.0355
938.000000, 73.862, 173.4412
950.000000, 73.940, 173.8005
962.000000, 74.016, 174.1392
975.000000, 74.100, 174.4708
988.000000, 74.187, 174.7669
1000.000000, 74.272, 175.0149
1015.000000, 74.391, 175.2993
1030.000000, 74.510, 175.5544
1044.000000, 74.618, 175.7441
1060.000000, 74.745, 175.9061
1075.000000, 74.865, 176.0179
1090.000000, 74.984, 176.0901
1106.000000, 75.107, 176.1069
1120.000000, 75.215, 176.1074
1138.000000, 75.352, 176.0549
1150.000000, 75.440, 175.9886
1172.000000, 75.596, 175.8098
1180.000000, 75.651, 175.7348
1206.000000, 75.823, 175.4437
1220.000000, 75.908, 175.2710
1241.000000, 76.034, 174.9877
1250.000000, 76.086, 174.8660
1265.000000, 76.169, 174.6533
1280.000000, 76.247, 174.4266
1315.000000, 76.413, 173.9050
1320.000000, 76.436, 173.8293
1340.000000, 76.525, 173.5526
1360.000000, 76.614, 173.3063
1380.000000, 76.695, 173.0747
1400.000000, 76.771, 172.8381
1430.000000, 76.884, 172.5022
1450.000000, 76.957, 172.3080
1475.000000, 77.043, 172.0749
1500.000000, 77.129, 171.8734
1525.000000, 77.214, 171.7084
1550.000000, 77.298, 171.5304
1575.000000, 77.383, 171.3692
1600.000000, 77.470, 171.2411
1625.000000, 77.559, 171.1408
1650.000000, 77.647, 171.0438
1675.000000, 77.737, 170.9606
1700.000000, 77.830, 170.8778
1725.000000, 77.925, 170.8192
1750.000000, 78.025, 170.7522
1775.000000, 78.125, 170.6685
1800.000000, 78.226, 170.5926
1825.000000, 78.331, 170.5257
1850.000000, 78.439, 170.4370
1875.000000, 78.550, 170.3397
1900.000000, 78.660, 170.2342
1925.000000, 78.774, 170.1309
1950.000000, 78.892, 170.0102
1975.000000, 79.010, 169.8419
2000.000000, 79.129, 169.6638
2030.000000, 79.276, 169.4661
2060.000000, 79.426, 169.2250
2090.000000, 79.577, 168.9410
2120.000000, 79.729, 168.6210
2140.000000, 79.831, 168.3912
2180.000000, 80.037, 167.8647
2200.000000, 80.139, 167.5735
2240.000000, 80.346, 166.9216
2270.000000, 80.500, 166.3695
2300.000000, 80.651, 165.7813
2330.000000, 80.799, 165.1602
2360.000000, 80.944, 164.4824
2400.000000, 81.133, 163.4887
2430.000000, 81.269, 162.6890
2470.000000, 81.442, 161.5549
2500.000000, 81.561, 160.6492
2540.000000, 81.709, 159.3663
2580.000000, 81.843, 158.0284
2620.000000, 81.960, 156.6284
2650.000000, 82.035, 155.5452
2690.000000, 82.118, 154.0732
2720.000000, 82.167, 152.9545
2760.000000, 82.216, 151.4532
2800.000000, 82.246, 149.9516
2850.000000, 82.252, 148.1071
2900.000000, 82.226, 146.3373
2950.000000, 82.175, 144.6586
3000.000000, 82.098, 143.1008
3040.000000, 82.019, 141.9485
3070.000000, 81.952, 141.1469
3110.000000, 81.853, 140.1663
3150.000000, 81.747, 139.2897
3200.000000, 81.607, 138.3409
3250.000000, 81.459, 137.5623
3300.000000, 81.306, 136.9561
3350.000000, 81.151, 136.4971
3400.000000, 80.998, 136.1840
3450.000000, 80.851, 136.0181
3500.000000, 80.711, 135.9974
3550.000000, 80.581, 136.0957
3600.000000, 80.457, 136.2838
3650.000000, 80.343, 136.5579
3700.000000, 80.242, 136.9223
3750.000000, 80.154, 137.3596
3820.000000, 80.053, 138.0532
3870.000000, 79.997, 138.6034
3950.000000, 79.929, 139.5419
4000.000000, 79.902, 140.1370
4060.000000, 79.888, 140.8232
4120.000000, 79.889, 141.4789
4180.000000, 79.903, 142.0623
4250.000000, 79.933, 142.6459
4310.000000, 79.965, 143.0517
4370.000000, 80.001, 143.3609
4440.000000, 80.042, 143.5744
4500.000000, 80.070, 143.6345
4550.000000, 80.084, 143.5998
4620.000000, 80.088, 143.4304
4680.000000, 80.072, 143.2072
4750.000000, 80.025, 142.8753
4820.000000, 79.941, 142.5058
4870.000000, 79.856, 142.2394
4940.000000, 79.704, 141.9091
5000.000000, 79.540, 141.7232
5080.000000, 79.274, 141.6810
5150.000000, 79.002, 141.8797
5220.000000, 78.702, 142.3773
5300.000000, 78.335, 143.3895
5380.000000, 77.956, 144.9255
5450.000000, 77.631, 146.6929
5520.000000, 77.325, 148.8420
5600.000000, 77.011, 151.7315
5700.000000, 76.692, 155.8881
5800.000000, 76.474, 160.4717
5900.000000, 76.375, 165.2687
6000.000000, 76.391, 170.0364
6080.000000, 76.475, 173.6751
6150.000000, 76.592, 176.6489
6220.000000, 76.740, 179.3827
6300.000000, 76.935, -177.8138
6400.000000, 77.186, -174.7943
6500.000000, 77.422, -172.1841
6600.000000, 77.634, -169.8663
6700.000000, 77.815, -167.7161
6800.000000, 77.966, -165.5962
6900.000000, 78.095, -163.3920
7000.000000, 78.213, -160.9900
7100.000000, 78.355, -158.3237
7200.000000, 78.561, -155.5121
7300.000000, 78.834, -152.8661
7400.000000, 79.160, -150.5244
7500.000000, 79.534, -148.5604
7620.000000, 80.039, -146.8645
7750.000000, 80.630, -146.1127
7880.000000, 81.213, -146.8430
8000.000000, 81.663, -149.0421
8120.000000, 81.924, -152.5719
8250.000000, 81.894, -157.3101
8380.000000, 81.491, -162.0103
8500.000000, 80.824, -165.4383
8620.000000, 79.960, -167.4465
8750.000000, 78.907, -167.8584
8850.000000, 78.075, -167.0325
9000.000000, 76.860, -164.1963
9120.000000, 75.943, -160.7997
9250.000000, 75.031, -156.2407
9380.000000, 74.220, -151.0134
9500.000000, 73.552, -145.8638
9620.000000, 72.947, -140.4978
9750.000000, 72.351, -134.4442
9880.000000, 71.812, -128.2021
10000.000000, 71.361, -122.2919
10150.000000, 70.849, -114.8041
10300.000000, 70.383, -107.1666
10440.000000, 69.986, -99.8292
10600.000000, 69.585, -91.1624
10750.000000, 69.262, -82.7992
10900.000000, 68.999, -74.1512
11060.000000, 68.804, -64.5921
11200.000000, 68.721, -56.0632
11380.000000, 68.757, -45.0942
11500.000000, 68.888, -37.9596
11720.000000, 69.310, -25.9699
11800.000000, 69.497, -22.0686
12060.000000, 70.104, -11.0927
12200.000000, 70.391, -5.9957
12410.000000, 70.749, 0.6005
12500.000000, 70.859, 3.0235
12650.000000, 70.964, 6.7451
12800.000000, 70.959, 10.2636
13150.000000, 70.445, 18.6270
13200.000000, 70.312, 19.9949
13400.000000, 69.648, 26.5249
13600.000000, 68.897, 35.4465
13800.000000, 68.275, 46.8150
14000.000000, 67.953, 59.6472
14300.000000, 68.041, 78.7776
14500.000000, 68.358, 90.5202
14750.000000, 68.932, 104.0133
15000.000000, 69.690, 116.3860
15250.000000, 70.672, 127.2065
15500.000000, 71.835, 135.3884
15750.000000, 72.990, 139.7321
16000.000000, 73.786, 140.0087
16250.000000, 73.875, 138.1220
16500.000000, 73.186, 137.5565
16750.000000, 72.011, 141.1992
17000.000000, 70.815, 149.8064
17250.000000, 69.985, 161.7443
17500.000000, 69.631, 174.2480
17750.000000, 69.563, -174.5332
18000.000000, 69.547, -164.2422
18250.000000, 69.650, -152.8948
18500.000000, 70.286, -141.8246
18750.000000, 71.220, -136.2814
19000.000000, 71.907, -136.2420
19250.000000, 71.920, -140.5691
19500.000000, 70.929, -145.9186
19750.000000, 69.158, -148.6354
20000.000000, 67.621, -148.0077
