* Measurement data measured by REW V5.31.3
* Source: Input device not selected, no input selected, L, volume: no control
* Format: 256k Log Swept Sine, 1 sweep at -12.0 dBFS with no timing reference
* Dated: Sep 9, 2024 6:23:42 PM
* REW Settings:
*  C-weighting compensation: Off
*  Target level: 75.0 dB
* Note: ; 
* Measurement: Davinci (H570 M) L
* Smoothing: 1/24 octave
* Frequency Step: 1/48 octave
* Start Frequency: 20.300 Hz
*
* Freq(Hz), SPL(dB), Phase(degrees)
20.299999, 83.502, -173.6671
20.600000, 83.505, -173.9756
20.900000, 83.504, -174.3584
21.200001, 83.501, -174.7864
21.400000, 83.499, -175.0854
21.799999, 83.493, -175.6834
22.000000, 83.490, -175.9695
22.400000, 83.487, -176.4975
22.700001, 83.485, -176.8521
23.000000, 83.485, -177.1760
23.299999, 83.484, -177.4771
23.600000, 83.483, -177.7635
24.000000, 83.481, -178.1338
24.299999, 83.479, -178.4084
24.700001, 83.476, -178.7739
25.000000, 83.474, -179.0478
25.400000, 83.470, -179.4134
25.799999, 83.465, -179.7850
26.200001, 83.460, 179.8264
26.500000, 83.454, 179.5186
26.900000, 83.445, 179.0911
27.200001, 83.437, 178.7709
27.600000, 83.426, 178.3715
28.000000, 83.418, 178.0254
28.500000, 83.419, 177.6582
29.000000, 83.427, 177.3005
29.500000, 83.429, 176.8933
30.000000, 83.414, 176.4482
30.400000, 83.391, 176.1019
30.700001, 83.373, 175.8600
31.100000, 83.353, 175.5536
31.500000, 83.342, 175.2424
32.000000, 83.335, 174.8203
32.500000, 83.326, 174.3790
33.000000, 83.309, 173.9691
33.500000, 83.289, 173.6176
34.000000, 83.269, 173.3071
34.500000, 83.251, 173.0076
35.000000, 83.234, 172.7065
35.500000, 83.217, 172.4023
36.000000, 83.204, 172.0885
36.500000, 83.192, 171.7581
37.000000, 83.181, 171.4175
37.500000, 83.169, 171.0830
38.200001, 83.150, 170.6344
38.700001, 83.133, 170.3164
39.500000, 83.098, 169.8113
40.000000, 83.075, 169.5176
40.599998, 83.051, 169.1909
41.200001, 83.034, 168.8610
41.799999, 83.018, 168.5005
42.500000, 82.994, 168.0597
43.099998, 82.969, 167.7059
43.700001, 82.948, 167.3852
44.400002, 82.928, 167.0186
45.000000, 82.909, 166.6916
45.500000, 82.889, 166.4258
46.200001, 82.855, 166.0974
46.799999, 82.828, 165.8467
47.500000, 82.796, 165.5357
48.200001, 82.757, 165.1747
48.700001, 82.727, 164.8938
49.400002, 82.691, 164.4894
50.000000, 82.670, 164.1552
50.799999, 82.647, 163.7585
51.500000, 82.624, 163.4437
52.200001, 82.594, 163.1323
53.000000, 82.557, 162.7906
53.799999, 82.523, 162.4612
54.500000, 82.483, 162.1785
55.200001, 82.429, 161.9487
56.000000, 82.384, 161.7205
57.000000, 82.366, 161.2538
58.000000, 82.330, 160.7082
59.000000, 82.274, 160.3413
60.000000, 82.227, 159.9669
60.799999, 82.192, 159.6165
61.500000, 82.156, 159.3273
62.200001, 82.116, 159.0752
63.000000, 82.075, 158.8021
64.000000, 82.030, 158.4180
65.000000, 81.986, 158.0257
66.000000, 81.939, 157.6768
67.000000, 81.887, 157.3660
68.000000, 81.837, 157.0179
69.000000, 81.786, 156.6712
70.000000, 81.737, 156.4758
71.000000, 81.685, 156.2477
72.000000, 81.622, 155.8181
73.000000, 81.563, 155.4005
74.000000, 81.508, 155.1912
75.000000, 81.447, 155.0484
76.199997, 81.383, 154.6927
77.500000, 81.327, 154.3371
78.800003, 81.277, 154.0902
80.000000, 81.230, 153.7260
81.199997, 81.165, 153.3896
82.500000, 81.081, 153.0673
83.800003, 81.002, 152.6945
85.000000, 80.938, 152.4033
86.199997, 80.870, 152.1464
87.500000, 80.787, 151.9683
88.500000, 80.724, 151.8184
90.000000, 80.639, 151.5107
91.199997, 80.580, 151.2715
92.500000, 80.513, 151.0419
93.800003, 80.444, 150.7805
95.000000, 80.378, 150.5057
96.199997, 80.306, 150.2905
97.500000, 80.219, 150.1141
98.800003, 80.131, 149.9260
100.000000, 80.061, 149.7422
101.500000, 79.982, 149.5582
103.000000, 79.897, 149.3700
104.400002, 79.817, 149.2078
106.000000, 79.725, 149.0513
107.500000, 79.631, 148.9003
109.000000, 79.542, 148.7501
110.599998, 79.450, 148.6263
112.000000, 79.366, 148.5243
113.800003, 79.259, 148.4316
115.000000, 79.188, 148.3627
117.199997, 79.060, 148.2827
118.000000, 79.017, 148.2577
120.599998, 78.877, 148.1505
122.000000, 78.795, 148.1452
124.099998, 78.674, 148.1381
125.000000, 78.621, 148.1390
126.500000, 78.529, 148.1678
128.000000, 78.434, 148.1871
131.500000, 78.195, 148.2686
132.000000, 78.159, 148.2940
134.000000, 78.012, 148.4738
136.000000, 77.870, 148.8061
138.000000, 77.731, 149.3295
140.000000, 77.612, 150.0432
143.000000, 77.513, 151.2950
145.000000, 77.524, 152.1034
147.500000, 77.580, 152.6402
150.000000, 77.625, 152.5913
152.500000, 77.603, 152.1972
155.000000, 77.532, 151.7764
157.500000, 77.446, 151.5607
160.000000, 77.340, 151.5045
162.500000, 77.228, 151.4816
165.000000, 77.114, 151.5266
167.500000, 77.000, 151.6870
170.000000, 76.893, 151.8855
172.500000, 76.786, 152.0818
175.000000, 76.676, 152.3378
177.500000, 76.569, 152.6033
180.000000, 76.466, 152.9180
182.500000, 76.366, 153.2961
185.000000, 76.268, 153.7076
187.500000, 76.176, 154.1666
190.000000, 76.094, 154.6555
192.500000, 76.025, 155.1363
195.000000, 75.971, 155.5908
197.500000, 75.920, 156.0280
200.000000, 75.859, 156.4595
203.000000, 75.777, 156.9807
206.000000, 75.700, 157.5200
209.000000, 75.638, 158.1070
212.000000, 75.587, 158.7051
214.000000, 75.557, 159.0806
218.000000, 75.511, 159.7670
220.000000, 75.487, 160.1062
224.000000, 75.442, 160.6733
227.000000, 75.406, 161.0506
230.000000, 75.366, 161.4425
233.000000, 75.320, 161.8324
236.000000, 75.274, 162.2505
240.000000, 75.218, 162.8038
243.000000, 75.178, 163.2350
247.000000, 75.130, 163.8398
250.000000, 75.095, 164.3000
254.000000, 75.050, 164.9163
258.000000, 75.005, 165.5349
262.000000, 74.965, 166.2149
265.000000, 74.941, 166.7377
269.000000, 74.912, 167.4381
272.000000, 74.889, 167.9688
276.000000, 74.864, 168.7019
280.000000, 74.858, 169.5030
285.000000, 74.877, 170.5559
290.000000, 74.940, 171.4708
295.000000, 75.024, 172.0471
300.000000, 75.095, 172.3237
304.000000, 75.135, 172.4255
307.000000, 75.155, 172.5013
311.000000, 75.167, 172.6267
315.000000, 75.166, 172.7872
320.000000, 75.155, 172.9852
325.000000, 75.141, 173.2363
330.000000, 75.137, 173.5369
335.000000, 75.135, 173.8257
340.000000, 75.129, 174.1151
345.000000, 75.121, 174.4261
350.000000, 75.116, 174.7203
355.000000, 75.112, 175.0030
360.000000, 75.107, 175.2638
365.000000, 75.103, 175.5207
370.000000, 75.098, 175.7827
375.000000, 75.093, 176.0421
382.000000, 75.088, 176.4080
387.000000, 75.085, 176.6547
395.000000, 75.081, 177.0358
400.000000, 75.078, 177.2582
406.000000, 75.072, 177.5070
412.000000, 75.066, 177.7667
418.000000, 75.060, 178.0059
425.000000, 75.049, 178.2715
431.000000, 75.036, 178.5335
437.000000, 75.024, 178.7957
444.000000, 75.012, 179.0685
450.000000, 74.998, 179.2662
455.000000, 74.987, 179.4408
462.000000, 74.971, 179.7390
468.000000, 74.953, 179.9897
475.000000, 74.932, -179.7013
482.000000, 74.915, -179.3649
487.000000, 74.904, -179.1097
494.000000, 74.886, -178.7579
500.000000, 74.874, -178.4735
508.000000, 74.861, -178.1222
515.000000, 74.853, -177.8233
522.000000, 74.849, -177.5187
530.000000, 74.840, -177.2211
538.000000, 74.822, -176.9223
545.000000, 74.805, -176.6511
552.000000, 74.790, -176.3955
560.000000, 74.774, -176.1111
570.000000, 74.751, -175.7107
580.000000, 74.727, -175.3347
590.000000, 74.699, -174.9437
600.000000, 74.670, -174.5533
608.000000, 74.646, -174.2285
615.000000, 74.626, -173.9163
622.000000, 74.609, -173.5962
630.000000, 74.586, -173.2356
640.000000, 74.555, -172.7952
650.000000, 74.519, -172.3351
660.000000, 74.487, -171.8864
670.000000, 74.461, -171.4019
680.000000, 74.433, -170.8844
690.000000, 74.403, -170.3787
700.000000, 74.372, -169.8476
710.000000, 74.343, -169.3293
720.000000, 74.313, -168.8064
730.000000, 74.288, -168.2535
740.000000, 74.270, -167.6790
750.000000, 74.254, -167.0904
762.000000, 74.231, -166.3430
775.000000, 74.211, -165.5725
788.000000, 74.189, -164.7846
800.000000, 74.171, -164.0172
812.000000, 74.161, -163.2089
825.000000, 74.153, -162.3445
838.000000, 74.141, -161.4850
850.000000, 74.136, -160.6871
862.000000, 74.139, -159.8963
875.000000, 74.150, -159.0068
885.000000, 74.162, -158.3164
900.000000, 74.184, -157.2831
912.000000, 74.207, -156.4736
925.000000, 74.236, -155.5807
938.000000, 74.268, -154.7027
950.000000, 74.302, -153.9104
962.000000, 74.341, -153.1536
975.000000, 74.389, -152.3069
988.000000, 74.439, -151.4322
1000.000000, 74.490, -150.6601
1015.000000, 74.564, -149.7505
1030.000000, 74.642, -148.8774
1044.000000, 74.719, -148.0992
1060.000000, 74.807, -147.2650
1075.000000, 74.893, -146.5038
1090.000000, 74.988, -145.7651
1106.000000, 75.096, -144.9975
1120.000000, 75.192, -144.3753
1138.000000, 75.318, -143.6299
1150.000000, 75.404, -143.1784
1172.000000, 75.558, -142.4646
1180.000000, 75.614, -142.2476
1206.000000, 75.796, -141.6516
1220.000000, 75.888, -141.4099
1241.000000, 76.009, -141.0824
1250.000000, 76.056, -140.9390
1265.000000, 76.134, -140.7030
1280.000000, 76.205, -140.5120
1315.000000, 76.342, -140.0642
1320.000000, 76.360, -139.9857
1340.000000, 76.429, -139.6551
1360.000000, 76.495, -139.3348
1380.000000, 76.560, -138.9857
1400.000000, 76.621, -138.5766
1430.000000, 76.712, -137.9279
1450.000000, 76.776, -137.4761
1475.000000, 76.856, -136.8733
1500.000000, 76.942, -136.2237
1525.000000, 77.031, -135.6045
1550.000000, 77.121, -135.0153
1575.000000, 77.218, -134.4014
1600.000000, 77.318, -133.7763
1625.000000, 77.425, -133.1767
1650.000000, 77.539, -132.5750
1675.000000, 77.659, -131.9937
1700.000000, 77.784, -131.4536
1725.000000, 77.914, -130.9304
1750.000000, 78.050, -130.4231
1775.000000, 78.188, -129.9594
1800.000000, 78.328, -129.5334
1825.000000, 78.473, -129.1552
1850.000000, 78.624, -128.8330
1875.000000, 78.777, -128.5600
1900.000000, 78.933, -128.3365
1925.000000, 79.089, -128.1657
1950.000000, 79.244, -128.0596
1975.000000, 79.398, -128.0266
2000.000000, 79.551, -128.0551
2030.000000, 79.735, -128.1403
2060.000000, 79.911, -128.3061
2090.000000, 80.079, -128.5418
2120.000000, 80.242, -128.8398
2140.000000, 80.347, -129.0686
2180.000000, 80.545, -129.6159
2200.000000, 80.638, -129.9308
2240.000000, 80.813, -130.5746
2270.000000, 80.934, -131.0711
2300.000000, 81.044, -131.6038
2330.000000, 81.146, -132.1593
2360.000000, 81.243, -132.7173
2400.000000, 81.362, -133.4523
2430.000000, 81.445, -134.0075
2470.000000, 81.551, -134.7501
2500.000000, 81.625, -135.3153
2540.000000, 81.719, -136.0882
2580.000000, 81.809, -136.8710
2620.000000, 81.896, -137.6539
2650.000000, 81.960, -138.2743
2690.000000, 82.044, -139.1687
2720.000000, 82.105, -139.8887
2760.000000, 82.183, -140.8963
2800.000000, 82.253, -141.9840
2850.000000, 82.328, -143.4939
2900.000000, 82.381, -145.1534
2950.000000, 82.399, -147.0286
3000.000000, 82.361, -149.0596
3040.000000, 82.280, -150.6664
3070.000000, 82.191, -151.7988
3110.000000, 82.042, -153.1362
3150.000000, 81.873, -154.2115
3200.000000, 81.653, -155.2471
3250.000000, 81.435, -156.0359
3300.000000, 81.220, -156.6286
3350.000000, 81.007, -157.0650
3400.000000, 80.795, -157.3379
3450.000000, 80.585, -157.4331
3500.000000, 80.385, -157.3351
3550.000000, 80.197, -157.0646
3600.000000, 80.026, -156.6263
3650.000000, 79.881, -156.0259
3700.000000, 79.769, -155.2949
3750.000000, 79.693, -154.4934
3820.000000, 79.651, -153.3898
3870.000000, 79.664, -152.7076
3950.000000, 79.752, -151.9638
4000.000000, 79.836, -151.7737
4060.000000, 79.948, -151.8979
4120.000000, 80.051, -152.4180
4180.000000, 80.132, -153.2186
4250.000000, 80.193, -154.4020
4310.000000, 80.215, -155.5986
4370.000000, 80.208, -156.9251
4440.000000, 80.151, -158.5707
4500.000000, 80.060, -160.0012
4550.000000, 79.958, -161.1529
4620.000000, 79.783, -162.6385
4680.000000, 79.616, -163.7822
4750.000000, 79.409, -164.9822
4820.000000, 79.195, -166.0832
4870.000000, 79.037, -166.8057
4940.000000, 78.812, -167.7561
5000.000000, 78.616, -168.5321
5080.000000, 78.349, -169.5379
5150.000000, 78.096, -170.4081
5220.000000, 77.820, -171.1941
5300.000000, 77.481, -171.9169
5380.000000, 77.123, -172.3854
5450.000000, 76.802, -172.5334
5520.000000, 76.485, -172.4464
5600.000000, 76.138, -172.0768
5700.000000, 75.749, -171.2569
5800.000000, 75.412, -170.1863
5900.000000, 75.132, -168.8562
6000.000000, 74.929, -167.3961
6080.000000, 74.821, -166.2096
6150.000000, 74.764, -165.1748
6220.000000, 74.741, -164.1790
6300.000000, 74.752, -163.1058
6400.000000, 74.826, -161.9281
6500.000000, 74.968, -160.9382
6600.000000, 75.182, -160.1366
6700.000000, 75.470, -159.6499
6800.000000, 75.817, -159.5715
6900.000000, 76.229, -159.9014
7000.000000, 76.703, -160.7205
7100.000000, 77.234, -162.1132
7200.000000, 77.817, -164.1930
7300.000000, 78.441, -167.1076
7400.000000, 79.088, -171.0664
7500.000000, 79.705, -176.2645
7620.000000, 80.311, 175.9014
7750.000000, 80.672, 165.8712
7880.000000, 80.626, 155.2454
8000.000000, 80.234, 146.0116
8120.000000, 79.595, 138.0126
8250.000000, 78.732, 131.0444
8380.000000, 77.798, 125.8390
8500.000000, 76.939, 122.2825
8620.000000, 76.069, 119.6442
8750.000000, 75.083, 118.4000
8850.000000, 74.436, 118.9236
9000.000000, 73.757, 119.8787
9120.000000, 73.295, 120.3821
9250.000000, 72.819, 121.1355
9380.000000, 72.385, 122.1903
9500.000000, 72.020, 123.3789
9620.000000, 71.684, 124.7857
9750.000000, 71.358, 126.4998
9880.000000, 71.068, 128.3885
10000.000000, 70.829, 130.2833
10150.000000, 70.567, 132.8762
10300.000000, 70.333, 135.6868
10440.000000, 70.154, 138.5303
10600.000000, 69.997, 142.0323
10750.000000, 69.886, 145.4279
10900.000000, 69.811, 148.9382
11060.000000, 69.776, 152.8351
11200.000000, 69.782, 156.3189
11380.000000, 69.844, 160.9333
11500.000000, 69.917, 164.0687
11720.000000, 70.123, 169.8484
11800.000000, 70.221, 171.9391
12060.000000, 70.610, 178.5376
12200.000000, 70.862, -178.0737
12410.000000, 71.286, -173.0502
12500.000000, 71.499, -170.8766
12650.000000, 71.909, -167.2856
12800.000000, 72.390, -163.9506
13150.000000, 73.734, -158.4806
13200.000000, 73.938, -158.0015
13400.000000, 74.747, -156.8387
13600.000000, 75.516, -156.8552
13800.000000, 76.206, -157.9503
14000.000000, 76.789, -159.9929
14300.000000, 77.441, -164.2897
14500.000000, 77.747, -167.8279
14750.000000, 77.978, -173.1772
15000.000000, 77.972, -179.8310
15250.000000, 77.547, 172.4325
15500.000000, 76.504, 165.5409
15750.000000, 75.118, 163.1086
16000.000000, 74.133, 162.6336
16250.000000, 73.178, 160.1046
16500.000000, 71.845, 158.0040
16750.000000, 70.292, 158.0599
17000.000000, 68.709, 160.2853
17250.000000, 67.165, 164.1402
17500.000000, 65.683, 169.2762
17750.000000, 64.320, 175.6789
18000.000000, 63.093, -177.1046
18250.000000, 61.968, -169.3309
18500.000000, 60.970, -161.1207
18750.000000, 60.148, -152.6903
19000.000000, 59.487, -145.2421
19250.000000, 58.861, -139.8570
19500.000000, 58.043, -135.8427
19750.000000, 57.037, -131.9242
20000.000000, 56.299, -128.3824
