* Measurement data measured by REW V5.31.3
* Source: Input device not selected, no input selected, L, volume: no control
* Format: 256k Log Swept Sine, 1 sweep at -12.0 dBFS with no timing reference
* Dated: Sep 9, 2024 6:37:53 PM
* REW Settings:
*  C-weighting compensation: Off
*  Target level: 75.0 dB
* Note: ; 
* Measurement: Davinci (Spinfit M) L
* Smoothing: 1/24 octave
* Frequency Step: 1/48 octave
* Start Frequency: 20.300 Hz
*
* Freq(Hz), SPL(dB), Phase(degrees)
20.299999, 83.358, -173.4706
20.600000, 83.353, -173.7756
20.900000, 83.347, -174.1012
21.200001, 83.341, -174.4351
21.400000, 83.338, -174.6644
21.799999, 83.331, -175.1315
22.000000, 83.327, -175.3615
22.400000, 83.319, -175.7962
22.700001, 83.315, -176.0962
23.000000, 83.313, -176.3827
23.299999, 83.315, -176.6713
23.600000, 83.319, -176.9762
24.000000, 83.323, -177.4164
24.299999, 83.322, -177.7625
24.700001, 83.317, -178.2178
25.000000, 83.311, -178.5383
25.400000, 83.304, -178.9301
25.799999, 83.300, -179.2936
26.200001, 83.297, -179.6501
26.500000, 83.293, -179.9207
26.900000, 83.284, 179.7158
27.200001, 83.275, 179.4459
27.600000, 83.260, 179.0937
28.000000, 83.247, 178.7469
28.500000, 83.233, 178.3087
29.000000, 83.221, 177.8627
29.500000, 83.210, 177.4288
30.000000, 83.199, 177.0273
30.400000, 83.191, 176.7275
30.700001, 83.185, 176.5074
31.100000, 83.176, 176.2108
31.500000, 83.165, 175.9062
32.000000, 83.148, 175.5201
32.500000, 83.131, 175.1375
33.000000, 83.118, 174.7579
33.500000, 83.107, 174.3770
34.000000, 83.093, 174.0049
34.500000, 83.074, 173.6654
35.000000, 83.052, 173.3696
35.500000, 83.032, 173.0958
36.000000, 83.016, 172.8027
36.500000, 83.002, 172.4661
37.000000, 82.987, 172.0987
37.500000, 82.971, 171.7335
38.200001, 82.948, 171.2606
38.700001, 82.930, 170.9432
39.500000, 82.899, 170.4565
40.000000, 82.878, 170.1764
40.599998, 82.857, 169.8653
41.200001, 82.840, 169.5544
41.799999, 82.822, 169.2231
42.500000, 82.794, 168.8236
43.099998, 82.767, 168.4840
43.700001, 82.742, 168.1431
44.400002, 82.717, 167.7451
45.000000, 82.697, 167.4193
45.500000, 82.680, 167.1615
46.200001, 82.651, 166.8105
46.799999, 82.622, 166.5153
47.500000, 82.588, 166.1794
48.200001, 82.560, 165.8438
48.700001, 82.542, 165.6046
49.400002, 82.515, 165.2869
50.000000, 82.490, 165.0316
50.799999, 82.455, 164.6783
51.500000, 82.423, 164.3455
52.200001, 82.390, 164.0185
53.000000, 82.355, 163.6689
53.799999, 82.318, 163.3289
54.500000, 82.285, 163.0246
55.200001, 82.253, 162.7069
56.000000, 82.219, 162.3532
57.000000, 82.173, 161.9778
58.000000, 82.123, 161.6009
59.000000, 82.068, 161.1805
60.000000, 82.020, 160.8170
60.799999, 81.989, 160.5593
61.500000, 81.960, 160.3229
62.200001, 81.926, 160.0670
63.000000, 81.884, 159.7646
64.000000, 81.833, 159.4135
65.000000, 81.788, 159.0800
66.000000, 81.740, 158.7411
67.000000, 81.689, 158.4160
68.000000, 81.638, 158.0974
69.000000, 81.588, 157.7938
70.000000, 81.538, 157.5007
71.000000, 81.483, 157.2076
72.000000, 81.428, 156.9171
73.000000, 81.377, 156.6191
74.000000, 81.327, 156.3229
75.000000, 81.278, 156.0417
76.199997, 81.222, 155.7139
77.500000, 81.155, 155.3798
78.800003, 81.088, 155.0674
80.000000, 81.026, 154.7830
81.199997, 80.962, 154.5010
82.500000, 80.896, 154.2000
83.800003, 80.830, 153.9041
85.000000, 80.766, 153.6399
86.199997, 80.702, 153.4199
87.500000, 80.633, 153.1978
88.500000, 80.578, 153.0090
90.000000, 80.498, 152.7300
91.199997, 80.431, 152.5282
92.500000, 80.358, 152.3085
93.800003, 80.286, 152.0998
95.000000, 80.221, 151.9150
96.199997, 80.158, 151.7169
97.500000, 80.090, 151.5211
98.800003, 80.021, 151.3470
100.000000, 79.954, 151.1880
101.500000, 79.869, 151.0148
103.000000, 79.790, 150.8569
104.400002, 79.716, 150.6744
106.000000, 79.632, 150.4747
107.500000, 79.554, 150.3351
109.000000, 79.471, 150.2060
110.599998, 79.380, 150.0801
112.000000, 79.301, 150.0048
113.800003, 79.204, 149.9048
115.000000, 79.139, 149.8255
117.199997, 79.023, 149.6917
118.000000, 78.982, 149.6595
120.599998, 78.840, 149.5973
122.000000, 78.767, 149.5393
124.099998, 78.663, 149.5192
125.000000, 78.621, 149.5224
126.500000, 78.548, 149.5200
128.000000, 78.470, 149.5280
131.500000, 78.289, 149.5117
132.000000, 78.263, 149.5106
134.000000, 78.163, 149.5288
136.000000, 78.065, 149.5993
138.000000, 77.970, 149.7027
140.000000, 77.874, 149.8004
143.000000, 77.735, 149.9396
145.000000, 77.645, 150.0401
147.500000, 77.525, 150.1867
150.000000, 77.412, 150.3685
152.500000, 77.308, 150.5771
155.000000, 77.202, 150.8324
157.500000, 77.097, 151.0799
160.000000, 76.993, 151.3422
162.500000, 76.891, 151.6222
165.000000, 76.793, 151.9143
167.500000, 76.701, 152.2307
170.000000, 76.608, 152.5378
172.500000, 76.516, 152.8629
175.000000, 76.431, 153.2260
177.500000, 76.346, 153.5845
180.000000, 76.264, 153.9244
182.500000, 76.186, 154.3007
185.000000, 76.109, 154.6984
187.500000, 76.037, 155.0844
190.000000, 75.962, 155.4757
192.500000, 75.894, 155.8973
195.000000, 75.833, 156.3155
197.500000, 75.772, 156.7307
200.000000, 75.710, 157.1348
203.000000, 75.636, 157.6345
206.000000, 75.570, 158.1518
209.000000, 75.507, 158.6583
212.000000, 75.448, 159.1654
214.000000, 75.412, 159.5034
218.000000, 75.342, 160.1801
220.000000, 75.309, 160.5095
224.000000, 75.249, 161.1675
227.000000, 75.210, 161.6801
230.000000, 75.172, 162.2020
233.000000, 75.136, 162.7162
236.000000, 75.104, 163.1924
240.000000, 75.065, 163.8368
243.000000, 75.035, 164.3112
247.000000, 74.999, 164.9260
250.000000, 74.976, 165.3771
254.000000, 74.951, 165.9524
258.000000, 74.931, 166.5171
262.000000, 74.908, 167.1159
265.000000, 74.894, 167.5529
269.000000, 74.882, 168.0799
272.000000, 74.873, 168.4700
276.000000, 74.861, 168.9835
280.000000, 74.850, 169.4691
285.000000, 74.840, 170.0275
290.000000, 74.837, 170.6238
295.000000, 74.829, 171.1616
300.000000, 74.829, 171.6765
304.000000, 74.830, 172.0607
307.000000, 74.833, 172.3455
311.000000, 74.841, 172.7416
315.000000, 74.842, 173.0977
320.000000, 74.840, 173.4997
325.000000, 74.842, 173.8878
330.000000, 74.845, 174.2939
335.000000, 74.851, 174.6744
340.000000, 74.856, 175.0293
345.000000, 74.856, 175.3867
350.000000, 74.857, 175.7260
355.000000, 74.860, 176.0476
360.000000, 74.865, 176.3250
365.000000, 74.867, 176.6068
370.000000, 74.864, 176.9030
375.000000, 74.858, 177.1899
382.000000, 74.859, 177.5570
387.000000, 74.856, 177.7711
395.000000, 74.843, 178.0928
400.000000, 74.834, 178.3144
406.000000, 74.822, 178.6174
412.000000, 74.805, 178.9291
418.000000, 74.787, 179.2190
425.000000, 74.762, 179.6032
431.000000, 74.737, 179.9393
437.000000, 74.712, -179.7093
444.000000, 74.681, -179.1718
450.000000, 74.659, -178.5835
455.000000, 74.655, -178.0128
462.000000, 74.687, -177.2681
468.000000, 74.737, -176.8242
475.000000, 74.801, -176.5273
482.000000, 74.850, -176.3827
487.000000, 74.870, -176.3285
494.000000, 74.882, -176.2742
500.000000, 74.882, -176.2115
508.000000, 74.874, -176.0713
515.000000, 74.864, -175.8924
522.000000, 74.852, -175.7031
530.000000, 74.837, -175.4827
538.000000, 74.820, -175.2560
545.000000, 74.802, -175.0654
552.000000, 74.782, -174.8506
560.000000, 74.755, -174.5547
570.000000, 74.726, -174.1938
580.000000, 74.699, -173.8575
590.000000, 74.671, -173.5176
600.000000, 74.644, -173.1253
608.000000, 74.618, -172.8187
615.000000, 74.594, -172.5526
622.000000, 74.569, -172.2582
630.000000, 74.542, -171.9006
640.000000, 74.511, -171.4492
650.000000, 74.482, -170.9890
660.000000, 74.455, -170.5070
670.000000, 74.430, -169.9945
680.000000, 74.397, -169.4763
690.000000, 74.364, -168.9502
700.000000, 74.337, -168.4272
710.000000, 74.314, -167.8882
720.000000, 74.292, -167.3000
730.000000, 74.273, -166.7108
740.000000, 74.253, -166.1548
750.000000, 74.236, -165.5951
762.000000, 74.214, -164.8851
775.000000, 74.185, -164.1148
788.000000, 74.159, -163.3207
800.000000, 74.147, -162.5315
812.000000, 74.139, -161.7485
825.000000, 74.131, -160.8930
838.000000, 74.128, -159.9890
850.000000, 74.133, -159.1646
862.000000, 74.135, -158.3258
875.000000, 74.139, -157.4263
885.000000, 74.153, -156.7311
900.000000, 74.181, -155.6797
912.000000, 74.207, -154.8578
925.000000, 74.239, -153.9846
938.000000, 74.276, -153.0927
950.000000, 74.318, -152.2533
962.000000, 74.364, -151.4359
975.000000, 74.417, -150.5554
988.000000, 74.478, -149.6862
1000.000000, 74.539, -148.9180
1015.000000, 74.611, -147.9955
1030.000000, 74.695, -147.1079
1044.000000, 74.779, -146.2595
1060.000000, 74.879, -145.3499
1075.000000, 74.981, -144.5754
1090.000000, 75.086, -143.8412
1106.000000, 75.201, -143.1361
1120.000000, 75.303, -142.5573
1138.000000, 75.439, -141.8633
1150.000000, 75.535, -141.4662
1172.000000, 75.708, -140.8774
1180.000000, 75.766, -140.7055
1206.000000, 75.932, -140.2463
1220.000000, 76.012, -139.9742
1241.000000, 76.136, -139.5392
1250.000000, 76.188, -139.3782
1265.000000, 76.270, -139.1365
1280.000000, 76.346, -138.9041
1315.000000, 76.511, -138.4047
1320.000000, 76.532, -138.3356
1340.000000, 76.616, -138.0426
1360.000000, 76.695, -137.7288
1380.000000, 76.774, -137.3888
1400.000000, 76.854, -137.0355
1430.000000, 76.970, -136.5233
1450.000000, 77.047, -136.2156
1475.000000, 77.138, -135.8493
1500.000000, 77.217, -135.4379
1525.000000, 77.288, -134.9431
1550.000000, 77.370, -134.3243
1575.000000, 77.462, -133.6729
1600.000000, 77.565, -133.0719
1625.000000, 77.680, -132.4868
1650.000000, 77.803, -131.9184
1675.000000, 77.928, -131.3872
1700.000000, 78.060, -130.9010
1725.000000, 78.196, -130.4339
1750.000000, 78.334, -129.9990
1775.000000, 78.477, -129.6239
1800.000000, 78.627, -129.3015
1825.000000, 78.778, -129.0179
1850.000000, 78.930, -128.7878
1875.000000, 79.085, -128.6198
1900.000000, 79.241, -128.5165
1925.000000, 79.395, -128.4747
1950.000000, 79.548, -128.4980
1975.000000, 79.696, -128.5879
2000.000000, 79.838, -128.7334
2030.000000, 80.006, -128.9484
2060.000000, 80.167, -129.2267
2090.000000, 80.320, -129.5704
2120.000000, 80.462, -129.9564
2140.000000, 80.551, -130.2353
2180.000000, 80.712, -130.8300
2200.000000, 80.786, -131.1273
2240.000000, 80.927, -131.7085
2270.000000, 81.030, -132.1245
2300.000000, 81.134, -132.5419
2330.000000, 81.238, -133.0068
2360.000000, 81.339, -133.5331
2400.000000, 81.459, -134.2943
2430.000000, 81.537, -134.8797
2470.000000, 81.629, -135.6434
2500.000000, 81.690, -136.1827
2540.000000, 81.769, -136.8749
2580.000000, 81.851, -137.5474
2620.000000, 81.940, -138.2101
2650.000000, 82.012, -138.7428
2690.000000, 82.115, -139.5260
2720.000000, 82.196, -140.1994
2760.000000, 82.305, -141.2321
2800.000000, 82.405, -142.4343
2850.000000, 82.506, -144.2146
2900.000000, 82.567, -146.2632
2950.000000, 82.565, -148.5372
3000.000000, 82.484, -150.8420
3040.000000, 82.363, -152.5817
3070.000000, 82.244, -153.7580
3110.000000, 82.056, -155.0991
3150.000000, 81.850, -156.1456
3200.000000, 81.590, -157.0937
3250.000000, 81.335, -157.7412
3300.000000, 81.090, -158.1377
3350.000000, 80.854, -158.3342
3400.000000, 80.629, -158.3407
3450.000000, 80.420, -158.1394
3500.000000, 80.232, -157.7235
3550.000000, 80.072, -157.1415
3600.000000, 79.948, -156.4474
3650.000000, 79.867, -155.6892
3700.000000, 79.829, -154.9713
3750.000000, 79.827, -154.3966
3820.000000, 79.864, -153.8719
3870.000000, 79.908, -153.7066
3950.000000, 79.989, -153.8044
4000.000000, 80.044, -154.0510
4060.000000, 80.112, -154.5369
4120.000000, 80.180, -155.2969
4180.000000, 80.232, -156.3817
4250.000000, 80.253, -157.9537
4310.000000, 80.230, -159.4738
4370.000000, 80.165, -161.0818
4440.000000, 80.035, -162.9689
4500.000000, 79.883, -164.5204
4550.000000, 79.731, -165.7374
4620.000000, 79.489, -167.2815
4680.000000, 79.264, -168.4478
4750.000000, 78.995, -169.6466
4820.000000, 78.720, -170.7234
4870.000000, 78.519, -171.4551
4940.000000, 78.230, -172.4044
5000.000000, 77.977, -173.1378
5080.000000, 77.627, -174.0362
5150.000000, 77.298, -174.7333
5220.000000, 76.951, -175.2980
5300.000000, 76.542, -175.6942
5380.000000, 76.126, -175.8053
5450.000000, 75.766, -175.6525
5520.000000, 75.416, -175.2723
5600.000000, 75.036, -174.6065
5700.000000, 74.611, -173.4992
5800.000000, 74.246, -172.1968
5900.000000, 73.937, -170.7086
6000.000000, 73.686, -169.1151
6080.000000, 73.532, -167.8730
6150.000000, 73.428, -166.8423
6220.000000, 73.352, -165.8654
6300.000000, 73.301, -164.8216
6400.000000, 73.280, -163.6784
6500.000000, 73.298, -162.7044
6600.000000, 73.349, -161.9007
6700.000000, 73.430, -161.2228
6800.000000, 73.541, -160.6301
6900.000000, 73.700, -160.0691
7000.000000, 73.921, -159.5732
7100.000000, 74.209, -159.2939
7200.000000, 74.564, -159.3545
7300.000000, 74.979, -159.8035
7400.000000, 75.457, -160.7548
7500.000000, 75.976, -162.4134
7620.000000, 76.605, -165.3324
7750.000000, 77.248, -169.6706
7880.000000, 77.795, -175.0279
8000.000000, 78.189, 179.3510
8120.000000, 78.456, 173.1936
8250.000000, 78.567, 166.2070
8380.000000, 78.475, 159.3560
8500.000000, 78.225, 153.5115
8620.000000, 77.848, 148.4414
8750.000000, 77.353, 144.1270
8850.000000, 76.975, 141.5843
9000.000000, 76.435, 138.4621
9120.000000, 76.005, 136.5308
9250.000000, 75.552, 135.0147
9380.000000, 75.124, 134.0219
9500.000000, 74.753, 133.4895
9620.000000, 74.403, 133.2548
9750.000000, 74.046, 133.3153
9880.000000, 73.709, 133.6749
10000.000000, 73.416, 134.2503
10150.000000, 73.070, 135.2958
10300.000000, 72.752, 136.7450
10440.000000, 72.498, 138.4521
10600.000000, 72.251, 140.6295
10750.000000, 72.043, 142.8721
10900.000000, 71.862, 145.3672
11060.000000, 71.709, 148.2363
11200.000000, 71.615, 150.9139
11380.000000, 71.548, 154.5650
11500.000000, 71.535, 157.0249
11720.000000, 71.584, 161.6154
11800.000000, 71.623, 163.2798
12060.000000, 71.805, 168.4603
12200.000000, 71.927, 171.1193
12410.000000, 72.134, 175.2052
12500.000000, 72.250, 177.0494
12650.000000, 72.504, -179.8926
12800.000000, 72.841, -177.1378
13150.000000, 73.820, -173.1387
13200.000000, 73.963, -172.8794
13400.000000, 74.504, -172.6109
13600.000000, 74.949, -173.4531
13800.000000, 75.255, -175.2320
14000.000000, 75.397, -177.5516
14300.000000, 75.307, 178.6892
14500.000000, 75.073, 176.2878
14750.000000, 74.617, 173.4568
15000.000000, 73.950, 170.8079
15250.000000, 72.985, 168.9328
15500.000000, 71.731, 169.8028
15750.000000, 70.693, 174.7664
16000.000000, 70.213, 179.2704
16250.000000, 69.772, -178.4723
16500.000000, 69.197, -176.1155
16750.000000, 68.635, -173.0867
17000.000000, 68.150, -170.1602
17250.000000, 67.671, -167.8933
17500.000000, 67.103, -165.9144
17750.000000, 66.461, -163.5463
18000.000000, 65.839, -160.8127
18250.000000, 65.246, -158.1632
18500.000000, 64.675, -155.9036
18750.000000, 64.100, -154.6936
19000.000000, 63.418, -155.4252
19250.000000, 62.386, -157.7404
19500.000000, 60.848, -159.6816
19750.000000, 59.037, -159.7088
20000.000000, 57.734, -158.6362
