* Measurement data measured by REW V5.31.3
* Source: Input device not selected, no input selected, L, volume: no control
* Format: 256k Log Swept Sine, 1 sweep at -12.0 dBFS with no timing reference
* Dated: Sep 9, 2024 10:11:42 PM
* REW Settings:
*  C-weighting compensation: Off
*  Target level: 75.0 dB
* Note: ; 
* Measurement: Davinci (Tape, Velvet M) L
* Smoothing: 1/24 octave
* Frequency Step: 1/48 octave
* Start Frequency: 20.300 Hz
*
* Freq(Hz), SPL(dB), Phase(degrees)
20.299999, 79.417, 177.8389
20.600000, 79.396, 177.7018
20.900000, 79.373, 177.5705
21.200001, 79.353, 177.4199
21.400000, 79.341, 177.2887
21.799999, 79.310, 176.9257
22.000000, 79.289, 176.6981
22.400000, 79.232, 176.2022
22.700001, 79.178, 175.8546
23.000000, 79.125, 175.5745
23.299999, 79.083, 175.3764
23.600000, 79.059, 175.2431
24.000000, 79.061, 175.0964
24.299999, 79.079, 174.9597
24.700001, 79.107, 174.7133
25.000000, 79.117, 174.4988
25.400000, 79.110, 174.2286
25.799999, 79.081, 174.0226
26.200001, 79.045, 173.8799
26.500000, 79.020, 173.7868
26.900000, 78.995, 173.6417
27.200001, 78.981, 173.5072
27.600000, 78.964, 173.3098
28.000000, 78.947, 173.1246
28.500000, 78.925, 172.9371
29.000000, 78.901, 172.7683
29.500000, 78.876, 172.5666
30.000000, 78.850, 172.3240
30.400000, 78.831, 172.1244
30.700001, 78.818, 171.9852
31.100000, 78.803, 171.8233
31.500000, 78.785, 171.6934
32.000000, 78.754, 171.5772
32.500000, 78.719, 171.4917
33.000000, 78.697, 171.3640
33.500000, 78.699, 171.0902
34.000000, 78.718, 170.6293
34.500000, 78.731, 170.0802
35.000000, 78.716, 169.6433
35.500000, 78.673, 169.4755
36.000000, 78.619, 169.5688
36.500000, 78.572, 169.7526
37.000000, 78.541, 169.8325
37.500000, 78.521, 169.7286
38.200001, 78.506, 169.3903
38.700001, 78.503, 169.1368
39.500000, 78.490, 168.8187
40.000000, 78.462, 168.6994
40.599998, 78.412, 168.6582
41.200001, 78.370, 168.6676
41.799999, 78.351, 168.6022
42.500000, 78.347, 168.3943
43.099998, 78.343, 168.2138
43.700001, 78.339, 168.0829
44.400002, 78.327, 167.9246
45.000000, 78.303, 167.7701
45.500000, 78.281, 167.6617
46.200001, 78.265, 167.5196
46.799999, 78.260, 167.3352
47.500000, 78.236, 167.0924
48.200001, 78.195, 166.9719
48.700001, 78.173, 166.9457
49.400002, 78.161, 166.8503
50.000000, 78.152, 166.6799
50.799999, 78.127, 166.4715
51.500000, 78.105, 166.3525
52.200001, 78.088, 166.2114
53.000000, 78.067, 166.0204
53.799999, 78.046, 165.8727
54.500000, 78.028, 165.7645
55.200001, 78.008, 165.6423
56.000000, 77.988, 165.4895
57.000000, 77.965, 165.2910
58.000000, 77.933, 165.0868
59.000000, 77.897, 164.8775
60.000000, 77.868, 164.7275
60.799999, 77.853, 164.6641
61.500000, 77.843, 164.5863
62.200001, 77.830, 164.4621
63.000000, 77.808, 164.3070
64.000000, 77.777, 164.1682
65.000000, 77.751, 164.0521
66.000000, 77.730, 163.8776
67.000000, 77.701, 163.6545
68.000000, 77.664, 163.4489
69.000000, 77.638, 163.3620
70.000000, 77.618, 163.3705
71.000000, 77.580, 163.2699
72.000000, 77.546, 162.9791
73.000000, 77.537, 162.6901
74.000000, 77.521, 162.6190
75.000000, 77.481, 162.6094
76.199997, 77.440, 162.3953
77.500000, 77.427, 162.1750
78.800003, 77.407, 162.0026
80.000000, 77.378, 161.7843
81.199997, 77.343, 161.6415
82.500000, 77.301, 161.5797
83.800003, 77.273, 161.5132
85.000000, 77.256, 161.3976
86.199997, 77.234, 161.2425
87.500000, 77.203, 161.1109
88.500000, 77.176, 161.0171
90.000000, 77.138, 160.8991
91.199997, 77.113, 160.8094
92.500000, 77.083, 160.6687
93.800003, 77.057, 160.5124
95.000000, 77.036, 160.3769
96.199997, 77.016, 160.2582
97.500000, 76.989, 160.1389
98.800003, 76.952, 160.0453
100.000000, 76.916, 159.9589
101.500000, 76.870, 159.8683
103.000000, 76.836, 159.7899
104.400002, 76.806, 159.6806
106.000000, 76.773, 159.5362
107.500000, 76.744, 159.4254
109.000000, 76.708, 159.3288
110.599998, 76.674, 159.2080
112.000000, 76.645, 159.1131
113.800003, 76.610, 159.0020
115.000000, 76.583, 158.9341
117.199997, 76.532, 158.8656
118.000000, 76.515, 158.8400
120.599998, 76.457, 158.7298
122.000000, 76.423, 158.6490
124.099998, 76.381, 158.5683
125.000000, 76.362, 158.5404
126.500000, 76.327, 158.4980
128.000000, 76.292, 158.4608
131.500000, 76.217, 158.3241
132.000000, 76.206, 158.2944
134.000000, 76.163, 158.1987
136.000000, 76.120, 158.2210
138.000000, 76.077, 158.2345
140.000000, 76.033, 158.1800
143.000000, 75.962, 158.1570
145.000000, 75.920, 158.1827
147.500000, 75.867, 158.2015
150.000000, 75.809, 158.1861
152.500000, 75.751, 158.2555
155.000000, 75.696, 158.3840
157.500000, 75.641, 158.5514
160.000000, 75.596, 158.7422
162.500000, 75.569, 158.9402
165.000000, 75.547, 159.1389
167.500000, 75.522, 159.3167
170.000000, 75.497, 159.4080
172.500000, 75.463, 159.4950
175.000000, 75.420, 159.6317
177.500000, 75.373, 159.8335
180.000000, 75.335, 160.1352
182.500000, 75.312, 160.5948
185.000000, 75.316, 161.1161
187.500000, 75.354, 161.6017
190.000000, 75.428, 161.9533
192.500000, 75.505, 161.9482
195.000000, 75.563, 161.6518
197.500000, 75.593, 161.2961
200.000000, 75.597, 161.0076
203.000000, 75.580, 160.7619
206.000000, 75.557, 160.5603
209.000000, 75.536, 160.3938
212.000000, 75.516, 160.2819
214.000000, 75.501, 160.1914
218.000000, 75.467, 160.0785
220.000000, 75.449, 160.0699
224.000000, 75.419, 160.0877
227.000000, 75.398, 160.0990
230.000000, 75.375, 160.0800
233.000000, 75.352, 160.0693
236.000000, 75.332, 160.0993
240.000000, 75.307, 160.1779
243.000000, 75.288, 160.2506
247.000000, 75.267, 160.3630
250.000000, 75.256, 160.4200
254.000000, 75.251, 160.5012
258.000000, 75.254, 160.6104
262.000000, 75.261, 160.7216
265.000000, 75.268, 160.7528
269.000000, 75.276, 160.7266
272.000000, 75.279, 160.6721
276.000000, 75.278, 160.5808
280.000000, 75.273, 160.5125
285.000000, 75.266, 160.4352
290.000000, 75.261, 160.3688
295.000000, 75.259, 160.3363
300.000000, 75.249, 160.2945
304.000000, 75.237, 160.2451
307.000000, 75.231, 160.2078
311.000000, 75.224, 160.1575
315.000000, 75.219, 160.1129
320.000000, 75.212, 160.0515
325.000000, 75.203, 160.0071
330.000000, 75.193, 159.9648
335.000000, 75.187, 159.9415
340.000000, 75.186, 159.9001
345.000000, 75.184, 159.8491
350.000000, 75.178, 159.8020
355.000000, 75.172, 159.8046
360.000000, 75.169, 159.8074
365.000000, 75.168, 159.7825
370.000000, 75.174, 159.7640
375.000000, 75.186, 159.7462
382.000000, 75.204, 159.6570
387.000000, 75.216, 159.5318
395.000000, 75.234, 159.2028
400.000000, 75.235, 158.9769
406.000000, 75.223, 158.7154
412.000000, 75.207, 158.5037
418.000000, 75.189, 158.3060
425.000000, 75.162, 158.0588
431.000000, 75.138, 157.9033
437.000000, 75.113, 157.7771
444.000000, 75.082, 157.6656
450.000000, 75.054, 157.5757
455.000000, 75.034, 157.4821
462.000000, 75.005, 157.3505
468.000000, 74.982, 157.3138
475.000000, 74.958, 157.3016
482.000000, 74.934, 157.2773
487.000000, 74.920, 157.2596
494.000000, 74.903, 157.2262
500.000000, 74.889, 157.1868
508.000000, 74.871, 157.1345
515.000000, 74.854, 157.0667
522.000000, 74.837, 157.0054
530.000000, 74.817, 156.9409
538.000000, 74.791, 156.8428
545.000000, 74.769, 156.7704
552.000000, 74.747, 156.6983
560.000000, 74.721, 156.6240
570.000000, 74.683, 156.5882
580.000000, 74.644, 156.5901
590.000000, 74.605, 156.5663
600.000000, 74.565, 156.5641
608.000000, 74.536, 156.5720
615.000000, 74.513, 156.5930
622.000000, 74.487, 156.6050
630.000000, 74.458, 156.6303
640.000000, 74.422, 156.7404
650.000000, 74.384, 156.8424
660.000000, 74.346, 156.9238
670.000000, 74.311, 157.0358
680.000000, 74.277, 157.2043
690.000000, 74.241, 157.3503
700.000000, 74.210, 157.4861
710.000000, 74.178, 157.6713
720.000000, 74.144, 157.9131
730.000000, 74.117, 158.1350
740.000000, 74.094, 158.3415
750.000000, 74.068, 158.5744
762.000000, 74.038, 158.8823
775.000000, 74.010, 159.2574
788.000000, 73.986, 159.6371
800.000000, 73.966, 160.0175
812.000000, 73.950, 160.4273
825.000000, 73.937, 160.8918
838.000000, 73.927, 161.3706
850.000000, 73.926, 161.8002
862.000000, 73.927, 162.2221
875.000000, 73.930, 162.6837
885.000000, 73.939, 163.0918
900.000000, 73.961, 163.7146
912.000000, 73.982, 164.2062
925.000000, 74.004, 164.7077
938.000000, 74.034, 165.2287
950.000000, 74.073, 165.6973
962.000000, 74.119, 166.1390
975.000000, 74.172, 166.5926
988.000000, 74.223, 166.9756
1000.000000, 74.272, 167.3153
1015.000000, 74.341, 167.8432
1030.000000, 74.414, 168.3169
1044.000000, 74.486, 168.6837
1060.000000, 74.576, 169.0554
1075.000000, 74.664, 169.3796
1090.000000, 74.750, 169.6872
1106.000000, 74.844, 169.9657
1120.000000, 74.928, 170.1608
1138.000000, 75.035, 170.3759
1150.000000, 75.103, 170.5185
1172.000000, 75.226, 170.7227
1180.000000, 75.271, 170.7738
1206.000000, 75.410, 170.9296
1220.000000, 75.483, 170.9970
1241.000000, 75.588, 171.0474
1250.000000, 75.633, 171.0576
1265.000000, 75.709, 171.0795
1280.000000, 75.781, 171.1146
1315.000000, 75.938, 171.1965
1320.000000, 75.960, 171.2004
1340.000000, 76.047, 171.2185
1360.000000, 76.134, 171.2396
1380.000000, 76.220, 171.2868
1400.000000, 76.301, 171.3388
1430.000000, 76.424, 171.4076
1450.000000, 76.509, 171.4732
1475.000000, 76.617, 171.5513
1500.000000, 76.723, 171.6348
1525.000000, 76.834, 171.7353
1550.000000, 76.950, 171.8271
1575.000000, 77.070, 171.8954
1600.000000, 77.194, 171.9597
1625.000000, 77.320, 172.0261
1650.000000, 77.452, 172.0634
1675.000000, 77.586, 172.0714
1700.000000, 77.723, 172.0582
1725.000000, 77.865, 172.0139
1750.000000, 78.010, 171.9262
1775.000000, 78.158, 171.7945
1800.000000, 78.308, 171.6204
1825.000000, 78.458, 171.3998
1850.000000, 78.611, 171.1243
1875.000000, 78.761, 170.7854
1900.000000, 78.907, 170.4095
1925.000000, 79.052, 169.9901
1950.000000, 79.192, 169.5284
1975.000000, 79.330, 169.0174
2000.000000, 79.466, 168.4590
2030.000000, 79.620, 167.7321
2060.000000, 79.763, 166.9486
2090.000000, 79.897, 166.1392
2120.000000, 80.020, 165.3260
2140.000000, 80.098, 164.7685
2180.000000, 80.241, 163.6217
2200.000000, 80.307, 163.0455
2240.000000, 80.427, 161.9149
2270.000000, 80.510, 161.0786
2300.000000, 80.588, 160.2662
2330.000000, 80.664, 159.4594
2360.000000, 80.738, 158.6571
2400.000000, 80.832, 157.6044
2430.000000, 80.902, 156.8230
2470.000000, 80.996, 155.7601
2500.000000, 81.067, 154.9411
2540.000000, 81.161, 153.8094
2580.000000, 81.255, 152.6122
2620.000000, 81.342, 151.3124
2650.000000, 81.404, 150.2682
2690.000000, 81.476, 148.7771
2720.000000, 81.520, 147.5881
2760.000000, 81.561, 145.9216
2800.000000, 81.576, 144.1630
2850.000000, 81.551, 141.8923
2900.000000, 81.471, 139.5881
2950.000000, 81.326, 137.3328
3000.000000, 81.116, 135.2875
3040.000000, 80.904, 133.9413
3070.000000, 80.727, 133.1673
3110.000000, 80.482, 132.4862
3150.000000, 80.246, 132.1866
3200.000000, 79.994, 132.2278
3250.000000, 79.806, 132.5358
3300.000000, 79.674, 132.8803
3350.000000, 79.581, 133.1640
3400.000000, 79.511, 133.3401
3450.000000, 79.458, 133.3974
3500.000000, 79.412, 133.3823
3550.000000, 79.367, 133.3387
3600.000000, 79.320, 133.2726
3650.000000, 79.273, 133.2064
3700.000000, 79.229, 133.1715
3750.000000, 79.193, 133.1746
3820.000000, 79.168, 133.2412
3870.000000, 79.173, 133.2574
3950.000000, 79.223, 133.0661
4000.000000, 79.268, 132.7529
4060.000000, 79.323, 132.1742
4120.000000, 79.373, 131.3469
4180.000000, 79.405, 130.2768
4250.000000, 79.408, 128.7884
4310.000000, 79.372, 127.3838
4370.000000, 79.299, 125.9297
4440.000000, 79.170, 124.2141
4500.000000, 79.025, 122.7788
4550.000000, 78.884, 121.6569
4620.000000, 78.661, 120.2254
4680.000000, 78.449, 119.0905
4750.000000, 78.184, 117.8473
4820.000000, 77.897, 116.7167
4870.000000, 77.676, 115.9959
4940.000000, 77.347, 115.1290
5000.000000, 77.049, 114.5617
5080.000000, 76.638, 114.0872
5150.000000, 76.273, 113.8940
5220.000000, 75.902, 113.9193
5300.000000, 75.476, 114.2402
5380.000000, 75.059, 114.8697
5450.000000, 74.710, 115.6378
5520.000000, 74.383, 116.6394
5600.000000, 74.041, 117.9843
5700.000000, 73.663, 119.8014
5800.000000, 73.341, 121.8086
5900.000000, 73.071, 123.9842
6000.000000, 72.858, 126.2624
6080.000000, 72.738, 128.0902
6150.000000, 72.668, 129.6844
6220.000000, 72.627, 131.2500
6300.000000, 72.613, 132.9876
6400.000000, 72.650, 135.1009
6500.000000, 72.746, 137.0320
6600.000000, 72.895, 138.7055
6700.000000, 73.098, 140.1879
6800.000000, 73.352, 141.4569
6900.000000, 73.655, 142.4724
7000.000000, 74.016, 143.1999
7100.000000, 74.430, 143.5438
7200.000000, 74.892, 143.4530
7300.000000, 75.406, 142.9057
7400.000000, 75.966, 141.7326
7500.000000, 76.543, 139.7331
7620.000000, 77.215, 136.1792
7750.000000, 77.834, 130.9044
7880.000000, 78.257, 124.5292
8000.000000, 78.439, 118.1027
8120.000000, 78.392, 111.5882
8250.000000, 78.092, 105.0490
8380.000000, 77.586, 99.5515
8500.000000, 76.995, 95.5860
8620.000000, 76.318, 92.7406
8750.000000, 75.530, 91.3555
8850.000000, 74.989, 91.4371
9000.000000, 74.315, 92.1425
9120.000000, 73.823, 93.0898
9250.000000, 73.329, 94.6076
9380.000000, 72.878, 96.6051
9500.000000, 72.504, 98.8212
9620.000000, 72.162, 101.2886
9750.000000, 71.824, 104.1938
9880.000000, 71.517, 107.4011
10000.000000, 71.254, 110.6113
10150.000000, 70.964, 114.9738
10300.000000, 70.721, 119.6630
10440.000000, 70.533, 124.1647
10600.000000, 70.353, 129.5426
10750.000000, 70.221, 134.8357
10900.000000, 70.127, 140.3639
11060.000000, 70.063, 146.5044
11200.000000, 70.042, 152.0249
11380.000000, 70.070, 159.2621
11500.000000, 70.123, 164.1610
11720.000000, 70.285, 173.1955
11800.000000, 70.364, 176.4765
12060.000000, 70.666, -172.9911
12200.000000, 70.841, -167.2631
12410.000000, 71.186, -158.2478
12500.000000, 71.389, -154.3289
12650.000000, 71.801, -148.0300
12800.000000, 72.284, -142.2048
13150.000000, 73.544, -131.0842
13200.000000, 73.728, -129.7904
13400.000000, 74.440, -125.3266
13600.000000, 75.091, -122.0082
13800.000000, 75.637, -119.7555
14000.000000, 76.040, -118.2961
14300.000000, 76.345, -116.9306
14500.000000, 76.365, -116.3361
14750.000000, 76.177, -115.8908
15000.000000, 75.688, -115.5947
15250.000000, 74.825, -114.3279
15500.000000, 73.748, -110.1234
15750.000000, 72.864, -104.0248
16000.000000, 72.066, -98.8609
16250.000000, 71.074, -93.5837
16500.000000, 69.950, -86.8736
16750.000000, 68.815, -78.8065
17000.000000, 67.719, -69.8185
17250.000000, 66.656, -60.3155
17500.000000, 65.594, -50.3334
17750.000000, 64.501, -39.5318
18000.000000, 63.404, -27.4821
18250.000000, 62.393, -13.9165
18500.000000, 61.618, 0.7433
18750.000000, 61.160, 14.6663
19000.000000, 60.861, 25.6653
19250.000000, 60.377, 33.7539
19500.000000, 59.532, 41.0139
19750.000000, 58.420, 48.7993
20000.000000, 57.573, 55.5167
