* Measurement data measured by REW V5.31.3
* Source: Input device not selected, no input selected, L, volume: no control
* Format: 256k Log Swept Sine, 1 sweep at -12.0 dBFS with no timing reference
* Dated: Sep 10, 2024 12:21:50 PM
* REW Settings:
*  C-weighting compensation: Off
*  Target level: 75.0 dB
* Note: ; 
* Measurement: Davinci (10ohm, Final E M) L
* Smoothing: 1/24 octave
* Frequency Step: 1/48 octave
* Start Frequency: 20.300 Hz
*
* Freq(Hz), SPL(dB), Phase(degrees)
20.299999, 85.993, -177.2975
20.600000, 86.043, -179.2166
20.900000, 86.155, 178.9963
21.200001, 86.308, 177.7621
21.400000, 86.415, 177.3147
21.799999, 86.605, 177.2639
22.000000, 86.675, 177.5691
22.400000, 86.745, 178.5163
22.700001, 86.734, 179.2393
23.000000, 86.674, 179.7435
23.299999, 86.577, 179.8937
23.600000, 86.461, 179.6471
24.000000, 86.316, 178.8135
24.299999, 86.242, 177.9951
24.700001, 86.213, 176.9561
25.000000, 86.244, 176.3538
25.400000, 86.328, 175.8177
25.799999, 86.410, 175.4665
26.200001, 86.445, 175.1453
26.500000, 86.429, 174.8729
26.900000, 86.373, 174.4602
27.200001, 86.331, 174.1208
27.600000, 86.314, 173.6259
28.000000, 86.355, 173.0718
28.500000, 86.443, 172.3433
29.000000, 86.482, 171.7462
29.500000, 86.417, 171.4440
30.000000, 86.282, 171.3633
30.400000, 86.179, 171.2469
30.700001, 86.129, 171.0150
31.100000, 86.113, 170.4684
31.500000, 86.144, 169.7314
32.000000, 86.201, 168.8205
32.500000, 86.221, 168.2107
33.000000, 86.176, 168.0014
33.500000, 86.098, 168.0195
34.000000, 86.065, 167.8770
34.500000, 86.125, 167.1975
35.000000, 86.241, 165.9701
35.500000, 86.319, 164.6741
36.000000, 86.293, 163.9675
36.500000, 86.181, 164.1674
37.000000, 86.072, 164.8860
37.500000, 86.027, 165.2216
38.200001, 86.022, 164.0899
38.700001, 85.983, 162.7381
39.500000, 85.880, 161.7393
40.000000, 85.866, 161.9593
40.599998, 85.894, 162.0350
41.200001, 85.880, 161.2746
41.799999, 85.809, 160.0963
42.500000, 85.776, 159.0317
43.099998, 85.829, 158.3504
43.700001, 85.844, 157.6743
44.400002, 85.707, 157.3233
45.000000, 85.568, 157.7050
45.500000, 85.546, 158.0624
46.200001, 85.623, 157.6324
46.799999, 85.625, 156.6374
47.500000, 85.527, 156.0797
48.200001, 85.516, 156.2908
48.700001, 85.584, 156.1130
49.400002, 85.629, 154.9811
50.000000, 85.539, 153.8544
50.799999, 85.365, 153.1019
51.500000, 85.285, 153.0088
52.200001, 85.276, 153.2351
53.000000, 85.335, 153.5668
53.799999, 85.366, 153.1728
54.500000, 85.264, 152.3431
55.200001, 85.100, 151.7111
56.000000, 84.971, 151.2979
57.000000, 84.912, 150.8818
58.000000, 84.947, 150.4784
59.000000, 84.981, 149.8015
60.000000, 84.921, 149.5504
60.799999, 84.881, 149.5150
61.500000, 84.855, 149.1284
62.200001, 84.803, 148.5017
63.000000, 84.716, 147.8813
64.000000, 84.627, 147.4504
65.000000, 84.602, 146.9769
66.000000, 84.562, 146.2487
67.000000, 84.458, 145.6791
68.000000, 84.353, 145.2712
69.000000, 84.264, 144.8849
70.000000, 84.197, 144.6670
71.000000, 84.167, 144.2801
72.000000, 84.133, 143.5151
73.000000, 84.085, 142.7809
74.000000, 84.058, 142.2305
75.000000, 84.026, 141.7791
76.199997, 83.945, 141.5177
77.500000, 83.862, 141.1101
78.800003, 83.768, 140.6154
80.000000, 83.673, 140.3120
81.199997, 83.575, 139.8188
82.500000, 83.502, 139.2231
83.800003, 83.433, 138.7382
85.000000, 83.345, 138.3239
86.199997, 83.251, 138.0187
87.500000, 83.167, 137.6486
88.500000, 83.110, 137.2466
90.000000, 83.017, 136.7910
91.199997, 82.925, 136.5281
92.500000, 82.810, 136.1428
93.800003, 82.714, 135.7579
95.000000, 82.646, 135.3798
96.199997, 82.583, 135.0590
97.500000, 82.517, 134.7823
98.800003, 82.437, 134.5248
100.000000, 82.342, 134.3196
101.500000, 82.227, 133.9598
103.000000, 82.131, 133.5025
104.400002, 82.042, 133.0979
106.000000, 81.939, 132.7148
107.500000, 81.828, 132.4646
109.000000, 81.724, 132.1321
110.599998, 81.618, 131.8218
112.000000, 81.519, 131.6656
113.800003, 81.410, 131.5587
115.000000, 81.338, 131.4622
117.199997, 81.195, 131.1014
118.000000, 81.141, 130.9351
120.599998, 80.952, 130.5439
122.000000, 80.853, 130.3367
124.099998, 80.715, 130.0556
125.000000, 80.657, 129.9644
126.500000, 80.561, 129.8743
128.000000, 80.458, 129.7968
131.500000, 80.241, 129.5532
132.000000, 80.211, 129.5367
134.000000, 80.091, 129.4932
136.000000, 79.970, 129.3774
138.000000, 79.845, 129.2428
140.000000, 79.718, 129.2199
143.000000, 79.531, 129.2444
145.000000, 79.410, 129.1521
147.500000, 79.277, 129.1260
150.000000, 79.145, 129.3377
152.500000, 78.985, 129.4168
155.000000, 78.837, 129.3719
157.500000, 78.690, 129.5242
160.000000, 78.559, 129.6362
162.500000, 78.434, 129.6919
165.000000, 78.302, 129.8390
167.500000, 78.175, 130.0302
170.000000, 78.057, 130.2588
172.500000, 77.944, 130.5408
175.000000, 77.825, 130.6989
177.500000, 77.712, 130.8738
180.000000, 77.594, 131.1264
182.500000, 77.477, 131.4825
185.000000, 77.382, 131.8392
187.500000, 77.297, 132.1178
190.000000, 77.199, 132.4553
192.500000, 77.089, 132.8217
195.000000, 76.986, 133.1170
197.500000, 76.897, 133.4433
200.000000, 76.813, 133.7567
203.000000, 76.707, 134.1522
206.000000, 76.604, 134.6483
209.000000, 76.526, 135.0976
212.000000, 76.448, 135.5085
214.000000, 76.389, 135.7728
218.000000, 76.276, 136.3223
220.000000, 76.221, 136.5976
224.000000, 76.111, 137.2527
227.000000, 76.038, 137.7876
230.000000, 75.974, 138.2908
233.000000, 75.910, 138.7560
236.000000, 75.855, 139.2231
240.000000, 75.780, 139.8377
243.000000, 75.726, 140.2354
247.000000, 75.651, 140.7660
250.000000, 75.601, 141.1888
254.000000, 75.547, 141.7476
258.000000, 75.499, 142.2962
262.000000, 75.454, 142.8854
265.000000, 75.427, 143.3284
269.000000, 75.391, 143.8582
272.000000, 75.359, 144.2547
276.000000, 75.322, 144.7504
280.000000, 75.291, 145.2870
285.000000, 75.262, 145.9208
290.000000, 75.233, 146.4783
295.000000, 75.194, 147.0813
300.000000, 75.177, 147.5432
304.000000, 75.161, 147.8771
307.000000, 75.146, 148.1635
311.000000, 75.128, 148.5877
315.000000, 75.118, 149.0432
320.000000, 75.103, 149.5394
325.000000, 75.085, 149.9699
330.000000, 75.074, 150.3726
335.000000, 75.082, 150.7373
340.000000, 75.082, 151.1132
345.000000, 75.062, 151.4602
350.000000, 75.048, 151.8657
355.000000, 75.040, 152.2688
360.000000, 75.025, 152.5624
365.000000, 75.011, 152.8293
370.000000, 75.008, 153.1342
375.000000, 75.009, 153.3773
382.000000, 75.003, 153.7499
387.000000, 74.998, 154.0833
395.000000, 74.988, 154.5198
400.000000, 74.983, 154.6875
406.000000, 74.975, 154.9604
412.000000, 74.970, 155.2632
418.000000, 74.969, 155.4883
425.000000, 74.966, 155.8402
431.000000, 74.950, 156.1699
437.000000, 74.925, 156.4000
444.000000, 74.908, 156.6360
450.000000, 74.904, 156.9107
455.000000, 74.901, 157.1556
462.000000, 74.904, 157.4253
468.000000, 74.904, 157.6278
475.000000, 74.905, 157.9344
482.000000, 74.906, 158.2448
487.000000, 74.901, 158.4658
494.000000, 74.900, 158.7545
500.000000, 74.899, 158.9785
508.000000, 74.901, 159.2742
515.000000, 74.899, 159.5947
522.000000, 74.891, 159.8266
530.000000, 74.898, 160.0416
538.000000, 74.908, 160.3225
545.000000, 74.910, 160.5562
552.000000, 74.909, 160.7274
560.000000, 74.911, 160.9253
570.000000, 74.905, 161.2195
580.000000, 74.883, 161.5255
590.000000, 74.869, 161.7821
600.000000, 74.871, 162.1082
608.000000, 74.864, 162.4686
615.000000, 74.856, 162.6926
622.000000, 74.852, 162.8463
630.000000, 74.851, 163.1044
640.000000, 74.841, 163.4967
650.000000, 74.825, 163.8963
660.000000, 74.817, 164.1924
670.000000, 74.814, 164.5013
680.000000, 74.802, 164.8297
690.000000, 74.794, 165.2103
700.000000, 74.798, 165.6011
710.000000, 74.798, 165.9713
720.000000, 74.794, 166.3582
730.000000, 74.787, 166.8267
740.000000, 74.780, 167.3199
750.000000, 74.774, 167.7701
762.000000, 74.768, 168.3322
775.000000, 74.768, 168.9348
788.000000, 74.782, 169.5768
800.000000, 74.799, 170.2203
812.000000, 74.809, 170.8214
825.000000, 74.826, 171.4156
838.000000, 74.860, 172.1129
850.000000, 74.890, 172.7728
862.000000, 74.920, 173.4270
875.000000, 74.957, 174.0975
885.000000, 74.985, 174.6151
900.000000, 75.034, 175.4601
912.000000, 75.093, 176.0885
925.000000, 75.157, 176.7655
938.000000, 75.219, 177.4663
950.000000, 75.273, 178.1163
962.000000, 75.339, 178.7346
975.000000, 75.420, 179.3746
988.000000, 75.512, -179.9901
1000.000000, 75.604, -179.4611
1015.000000, 75.706, -178.7914
1030.000000, 75.813, -178.0780
1044.000000, 75.922, -177.4441
1060.000000, 76.053, -176.8369
1075.000000, 76.179, -176.3133
1090.000000, 76.314, -175.8213
1106.000000, 76.458, -175.3522
1120.000000, 76.583, -174.9936
1138.000000, 76.750, -174.5987
1150.000000, 76.864, -174.3709
1172.000000, 77.057, -174.0701
1180.000000, 77.125, -173.9886
1206.000000, 77.355, -173.7979
1220.000000, 77.480, -173.7662
1241.000000, 77.656, -173.8318
1250.000000, 77.725, -173.8780
1265.000000, 77.833, -173.9639
1280.000000, 77.935, -174.0278
1315.000000, 78.146, -174.1765
1320.000000, 78.176, -174.1882
1340.000000, 78.294, -174.2110
1360.000000, 78.397, -174.2500
1380.000000, 78.496, -174.2254
1400.000000, 78.598, -174.1633
1430.000000, 78.758, -174.0928
1450.000000, 78.868, -174.0616
1475.000000, 79.004, -174.0257
1500.000000, 79.133, -173.9812
1525.000000, 79.258, -173.9094
1550.000000, 79.385, -173.7572
1575.000000, 79.521, -173.5690
1600.000000, 79.666, -173.3645
1625.000000, 79.822, -173.2234
1650.000000, 79.984, -173.1179
1675.000000, 80.148, -173.0210
1700.000000, 80.308, -172.9570
1725.000000, 80.470, -172.9178
1750.000000, 80.636, -172.8911
1775.000000, 80.804, -172.9212
1800.000000, 80.973, -173.0017
1825.000000, 81.143, -173.1322
1850.000000, 81.322, -173.2960
1875.000000, 81.501, -173.4833
1900.000000, 81.681, -173.7303
1925.000000, 81.863, -174.0536
1950.000000, 82.043, -174.4362
1975.000000, 82.218, -174.8817
2000.000000, 82.388, -175.3851
2030.000000, 82.583, -176.0335
2060.000000, 82.773, -176.7711
2090.000000, 82.953, -177.5620
2120.000000, 83.122, -178.3967
2140.000000, 83.227, -178.9729
2180.000000, 83.421, 179.8363
2200.000000, 83.509, 179.2236
2240.000000, 83.675, 177.9826
2270.000000, 83.789, 177.0460
2300.000000, 83.898, 176.1391
2330.000000, 84.000, 175.2415
2360.000000, 84.093, 174.3417
2400.000000, 84.209, 173.1622
2430.000000, 84.295, 172.2958
2470.000000, 84.407, 171.1437
2500.000000, 84.488, 170.2927
2540.000000, 84.597, 169.1270
2580.000000, 84.708, 167.9098
2620.000000, 84.817, 166.6636
2650.000000, 84.892, 165.6843
2690.000000, 84.987, 164.2826
2720.000000, 85.054, 163.1524
2760.000000, 85.138, 161.5202
2800.000000, 85.209, 159.7568
2850.000000, 85.270, 157.3472
2900.000000, 85.277, 154.6767
2950.000000, 85.206, 151.8237
3000.000000, 85.034, 148.9402
3040.000000, 84.817, 146.8318
3070.000000, 84.610, 145.4792
3110.000000, 84.289, 144.0833
3150.000000, 83.946, 143.2490
3200.000000, 83.529, 143.0118
3250.000000, 83.169, 143.5067
3300.000000, 82.892, 144.4104
3350.000000, 82.699, 145.5039
3400.000000, 82.577, 146.6094
3450.000000, 82.516, 147.6627
3500.000000, 82.507, 148.5819
3550.000000, 82.533, 149.3116
3600.000000, 82.583, 149.8531
3650.000000, 82.650, 150.1830
3700.000000, 82.728, 150.3218
3750.000000, 82.812, 150.3029
3820.000000, 82.931, 150.0185
3870.000000, 83.016, 149.6390
3950.000000, 83.141, 148.6913
4000.000000, 83.212, 147.9179
4060.000000, 83.281, 146.7780
4120.000000, 83.329, 145.4009
4180.000000, 83.345, 143.8040
4250.000000, 83.305, 141.7069
4310.000000, 83.213, 139.8251
4370.000000, 83.064, 137.9330
4440.000000, 82.819, 135.8768
4500.000000, 82.566, 134.3430
4550.000000, 82.333, 133.2791
4620.000000, 81.984, 132.1565
4680.000000, 81.679, 131.4910
4750.000000, 81.337, 130.9668
4820.000000, 81.012, 130.6287
4870.000000, 80.784, 130.4399
4940.000000, 80.468, 130.2347
5000.000000, 80.199, 130.0990
5080.000000, 79.839, 129.9494
5150.000000, 79.516, 129.9503
5220.000000, 79.183, 130.1117
5300.000000, 78.790, 130.4641
5380.000000, 78.394, 130.9992
5450.000000, 78.055, 131.6922
5520.000000, 77.730, 132.5787
5600.000000, 77.380, 133.7424
5700.000000, 76.992, 135.4008
5800.000000, 76.645, 137.1641
5900.000000, 76.334, 139.0306
6000.000000, 76.079, 141.0693
6080.000000, 75.905, 142.7259
6150.000000, 75.777, 144.1230
6220.000000, 75.672, 145.4862
6300.000000, 75.575, 147.0256
6400.000000, 75.492, 148.8640
6500.000000, 75.456, 150.6321
6600.000000, 75.470, 152.2872
6700.000000, 75.533, 153.7523
6800.000000, 75.612, 154.9712
6900.000000, 75.712, 155.9720
7000.000000, 75.842, 156.7406
7100.000000, 75.994, 157.4047
7200.000000, 76.168, 157.9045
7300.000000, 76.359, 158.1402
7400.000000, 76.571, 158.0327
7500.000000, 76.791, 157.5054
7620.000000, 77.023, 156.4042
7750.000000, 77.201, 154.8386
7880.000000, 77.287, 153.1599
8000.000000, 77.312, 151.8096
8120.000000, 77.300, 150.5919
8250.000000, 77.232, 149.5146
8380.000000, 77.122, 148.8004
8500.000000, 76.997, 148.5157
8620.000000, 76.835, 148.6238
8750.000000, 76.611, 149.4945
8850.000000, 76.484, 150.8716
9000.000000, 76.419, 153.1180
9120.000000, 76.403, 154.9634
9250.000000, 76.407, 157.2648
9380.000000, 76.445, 159.8333
9500.000000, 76.528, 162.3334
9620.000000, 76.650, 164.8895
9750.000000, 76.829, 167.6371
9880.000000, 77.044, 170.2982
10000.000000, 77.268, 172.6039
10150.000000, 77.563, 175.2472
10300.000000, 77.861, 177.6784
10440.000000, 78.140, 179.8003
10600.000000, 78.451, -178.1138
10750.000000, 78.701, -176.4219
10900.000000, 78.899, -174.8793
11060.000000, 79.060, -173.2657
11200.000000, 79.159, -171.8167
11380.000000, 79.232, -169.8606
11500.000000, 79.251, -168.4499
11720.000000, 79.241, -165.6629
11800.000000, 79.223, -164.6106
12060.000000, 79.110, -161.0512
12200.000000, 79.013, -159.0656
12410.000000, 78.815, -155.7641
12500.000000, 78.723, -154.1976
12650.000000, 78.587, -151.4976
12800.000000, 78.484, -148.9246
13150.000000, 78.176, -144.6150
13200.000000, 78.102, -144.1836
13400.000000, 77.692, -142.6292
13600.000000, 77.094, -141.0114
13800.000000, 76.331, -138.9152
14000.000000, 75.442, -136.1519
14300.000000, 73.930, -130.6646
14500.000000, 72.843, -126.2664
14750.000000, 71.392, -120.0262
15000.000000, 69.822, -112.9062
15250.000000, 68.060, -104.7381
15500.000000, 66.064, -93.1779
15750.000000, 64.319, -75.9128
16000.000000, 63.273, -58.8594
16250.000000, 62.373, -44.6772
16500.000000, 61.392, -29.8873
16750.000000, 60.512, -13.8127
17000.000000, 59.821, 2.3426
17250.000000, 59.244, 18.0133
17500.000000, 58.722, 32.7730
17750.000000, 58.157, 46.7794
18000.000000, 57.543, 60.8445
18250.000000, 56.800, 76.2065
18500.000000, 56.056, 93.7461
18750.000000, 55.675, 113.0161
19000.000000, 55.709, 131.8544
19250.000000, 55.995, 147.5025
19500.000000, 56.263, 159.4166
19750.000000, 56.366, 167.8315
20000.000000, 56.307, 172.5926
