* Measurement data measured by REW V5.31.3
* Source: Input device not selected, no input selected, L, volume: no control
* Format: 256k Log Swept Sine, 1 sweep at -12.0 dBFS with no timing reference
* Dated: Sep 11, 2024 11:00:46 PM
* REW Settings:
*  C-weighting compensation: Off
*  Target level: 75.0 dB
* Note: ; 
* Measurement: Davinci (Foam M) L
* Smoothing: 1/24 octave
* Frequency Step: 1/48 octave
* Start Frequency: 20.300 Hz
*
* Freq(Hz), SPL(dB), Phase(degrees)
20.299999, 83.646, -174.6570
20.600000, 83.639, -174.9692
20.900000, 83.631, -175.3367
21.200001, 83.623, -175.7367
21.400000, 83.619, -176.0146
21.799999, 83.613, -176.5698
22.000000, 83.611, -176.8340
22.400000, 83.609, -177.3141
22.700001, 83.607, -177.6322
23.000000, 83.606, -177.9298
23.299999, 83.605, -178.2290
23.600000, 83.604, -178.5502
24.000000, 83.602, -179.0292
24.299999, 83.599, -179.4199
24.700001, 83.594, -179.9511
25.000000, 83.591, 179.6673
25.400000, 83.590, 179.2057
25.799999, 83.591, 178.8008
26.200001, 83.591, 178.4348
26.500000, 83.589, 178.1699
26.900000, 83.581, 177.8114
27.200001, 83.572, 177.5316
27.600000, 83.558, 177.1415
28.000000, 83.545, 176.7379
28.500000, 83.533, 176.2349
29.000000, 83.525, 175.7595
29.500000, 83.519, 175.3215
30.000000, 83.511, 174.9028
30.400000, 83.502, 174.5630
30.700001, 83.494, 174.3009
31.100000, 83.481, 173.9456
31.500000, 83.468, 173.5930
32.000000, 83.455, 173.1655
32.500000, 83.448, 172.7474
33.000000, 83.440, 172.3272
33.500000, 83.428, 171.9073
34.000000, 83.411, 171.5013
34.500000, 83.394, 171.1157
35.000000, 83.378, 170.7437
35.500000, 83.364, 170.3795
36.000000, 83.348, 170.0260
36.500000, 83.331, 169.6844
37.000000, 83.316, 169.3430
37.500000, 83.302, 168.9858
38.200001, 83.283, 168.4648
38.700001, 83.268, 168.1060
39.500000, 83.243, 167.5815
40.000000, 83.227, 167.2675
40.599998, 83.204, 166.8871
41.200001, 83.180, 166.5061
41.799999, 83.155, 166.1306
42.500000, 83.128, 165.6983
43.099998, 83.104, 165.3377
43.700001, 83.082, 164.9901
44.400002, 83.062, 164.5793
45.000000, 83.047, 164.1979
45.500000, 83.031, 163.8652
46.200001, 83.001, 163.4224
46.799999, 82.973, 163.0892
47.500000, 82.943, 162.7254
48.200001, 82.915, 162.3407
48.700001, 82.894, 162.0527
49.400002, 82.864, 161.6506
50.000000, 82.842, 161.3109
50.799999, 82.811, 160.8710
51.500000, 82.778, 160.5237
52.200001, 82.743, 160.1967
53.000000, 82.710, 159.7794
53.799999, 82.679, 159.3481
54.500000, 82.653, 159.0472
55.200001, 82.625, 158.8065
56.000000, 82.586, 158.4915
57.000000, 82.532, 157.9470
58.000000, 82.489, 157.3358
59.000000, 82.450, 156.8234
60.000000, 82.406, 156.4059
60.799999, 82.370, 156.0790
61.500000, 82.338, 155.7978
62.200001, 82.307, 155.5187
63.000000, 82.268, 155.1852
64.000000, 82.221, 154.7475
65.000000, 82.177, 154.3150
66.000000, 82.131, 153.9223
67.000000, 82.082, 153.5468
68.000000, 82.031, 153.1505
69.000000, 81.977, 152.7838
70.000000, 81.926, 152.4375
71.000000, 81.883, 152.0562
72.000000, 81.839, 151.6690
73.000000, 81.789, 151.3134
74.000000, 81.738, 150.9623
75.000000, 81.692, 150.6202
76.199997, 81.638, 150.2381
77.500000, 81.572, 149.8154
78.800003, 81.507, 149.3724
80.000000, 81.444, 148.9939
81.199997, 81.384, 148.6533
82.500000, 81.323, 148.2701
83.800003, 81.256, 147.8763
85.000000, 81.191, 147.5373
86.199997, 81.127, 147.2310
87.500000, 81.057, 146.8928
88.500000, 81.011, 146.6428
90.000000, 80.941, 146.2747
91.199997, 80.878, 145.9622
92.500000, 80.808, 145.6367
93.800003, 80.736, 145.3364
95.000000, 80.668, 145.0266
96.199997, 80.605, 144.7444
97.500000, 80.542, 144.4833
98.800003, 80.481, 144.2193
100.000000, 80.420, 143.9832
101.500000, 80.342, 143.7000
103.000000, 80.260, 143.4402
104.400002, 80.183, 143.2232
106.000000, 80.098, 142.9963
107.500000, 80.017, 142.7679
109.000000, 79.939, 142.5212
110.599998, 79.863, 142.2654
112.000000, 79.795, 142.0422
113.800003, 79.698, 141.7789
115.000000, 79.632, 141.6238
117.199997, 79.516, 141.3916
118.000000, 79.476, 141.2838
120.599998, 79.355, 140.9674
122.000000, 79.286, 140.8436
124.099998, 79.175, 140.6058
125.000000, 79.130, 140.5148
126.500000, 79.054, 140.3858
128.000000, 78.975, 140.2639
131.500000, 78.807, 140.0691
132.000000, 78.783, 140.0503
134.000000, 78.684, 139.9382
136.000000, 78.588, 139.8098
138.000000, 78.494, 139.7543
140.000000, 78.399, 139.7231
143.000000, 78.262, 139.7586
145.000000, 78.168, 139.8272
147.500000, 78.057, 139.7892
150.000000, 77.950, 139.6808
152.500000, 77.838, 139.6484
155.000000, 77.732, 139.7649
157.500000, 77.624, 139.8637
160.000000, 77.520, 139.9065
162.500000, 77.418, 139.9877
165.000000, 77.315, 140.1200
167.500000, 77.220, 140.2195
170.000000, 77.130, 140.3631
172.500000, 77.037, 140.5472
175.000000, 76.949, 140.7414
177.500000, 76.864, 140.9365
180.000000, 76.774, 141.0999
182.500000, 76.686, 141.3138
185.000000, 76.609, 141.5732
187.500000, 76.535, 141.7864
190.000000, 76.456, 141.9990
192.500000, 76.377, 142.2484
195.000000, 76.306, 142.5114
197.500000, 76.239, 142.7891
200.000000, 76.172, 143.0695
203.000000, 76.099, 143.3721
206.000000, 76.027, 143.6869
209.000000, 75.962, 144.0127
212.000000, 75.897, 144.3553
214.000000, 75.856, 144.5675
218.000000, 75.780, 145.0120
220.000000, 75.741, 145.2438
224.000000, 75.670, 145.7229
227.000000, 75.622, 146.0918
230.000000, 75.578, 146.4445
233.000000, 75.532, 146.7861
236.000000, 75.485, 147.1149
240.000000, 75.433, 147.5541
243.000000, 75.397, 147.8305
247.000000, 75.355, 148.2550
250.000000, 75.327, 148.5862
254.000000, 75.292, 149.0123
258.000000, 75.262, 149.4547
262.000000, 75.233, 149.8998
265.000000, 75.212, 150.2256
269.000000, 75.190, 150.5895
272.000000, 75.176, 150.8376
276.000000, 75.155, 151.1668
280.000000, 75.140, 151.5090
285.000000, 75.127, 151.9430
290.000000, 75.108, 152.3256
295.000000, 75.093, 152.6087
300.000000, 75.078, 152.9492
304.000000, 75.073, 153.2545
307.000000, 75.074, 153.4571
311.000000, 75.074, 153.7410
315.000000, 75.071, 154.0236
320.000000, 75.064, 154.2894
325.000000, 75.059, 154.4951
330.000000, 75.059, 154.6921
335.000000, 75.060, 154.9071
340.000000, 75.058, 155.1480
345.000000, 75.058, 155.3546
350.000000, 75.061, 155.5334
355.000000, 75.064, 155.7260
360.000000, 75.064, 155.8803
365.000000, 75.063, 156.0129
370.000000, 75.061, 156.1345
375.000000, 75.061, 156.2378
382.000000, 75.066, 156.3827
387.000000, 75.067, 156.4855
395.000000, 75.063, 156.6274
400.000000, 75.060, 156.7222
406.000000, 75.056, 156.8033
412.000000, 75.054, 156.8677
418.000000, 75.047, 156.9922
425.000000, 75.036, 157.0804
431.000000, 75.028, 157.1302
437.000000, 75.022, 157.1946
444.000000, 75.015, 157.2591
450.000000, 75.006, 157.3303
455.000000, 74.995, 157.3976
462.000000, 74.978, 157.4955
468.000000, 74.963, 157.5684
475.000000, 74.948, 157.6335
482.000000, 74.931, 157.7243
487.000000, 74.919, 157.8014
494.000000, 74.903, 157.9042
500.000000, 74.891, 158.0062
508.000000, 74.876, 158.1637
515.000000, 74.864, 158.3018
522.000000, 74.854, 158.4197
530.000000, 74.845, 158.5276
538.000000, 74.828, 158.6063
545.000000, 74.816, 158.6586
552.000000, 74.806, 158.7455
560.000000, 74.792, 158.8573
570.000000, 74.762, 158.9833
580.000000, 74.734, 159.1555
590.000000, 74.712, 159.2916
600.000000, 74.687, 159.4684
608.000000, 74.666, 159.5971
615.000000, 74.648, 159.6978
622.000000, 74.628, 159.8309
630.000000, 74.600, 159.9874
640.000000, 74.568, 160.1901
650.000000, 74.544, 160.4094
660.000000, 74.520, 160.6812
670.000000, 74.489, 160.9608
680.000000, 74.458, 161.2056
690.000000, 74.431, 161.4637
700.000000, 74.405, 161.7985
710.000000, 74.380, 162.1403
720.000000, 74.354, 162.4503
730.000000, 74.333, 162.7727
740.000000, 74.311, 163.1441
750.000000, 74.286, 163.5547
762.000000, 74.264, 164.0191
775.000000, 74.250, 164.5190
788.000000, 74.234, 165.0431
800.000000, 74.219, 165.5688
812.000000, 74.214, 166.0845
825.000000, 74.209, 166.6751
838.000000, 74.204, 167.3375
850.000000, 74.208, 167.9625
862.000000, 74.215, 168.5793
875.000000, 74.228, 169.2437
885.000000, 74.241, 169.7494
900.000000, 74.266, 170.5026
912.000000, 74.292, 171.1147
925.000000, 74.327, 171.7946
938.000000, 74.368, 172.4370
950.000000, 74.410, 173.0273
962.000000, 74.457, 173.6337
975.000000, 74.513, 174.2634
988.000000, 74.571, 174.8338
1000.000000, 74.628, 175.3422
1015.000000, 74.704, 176.0594
1030.000000, 74.792, 176.7053
1044.000000, 74.883, 177.2622
1060.000000, 74.989, 177.8953
1075.000000, 75.090, 178.4292
1090.000000, 75.192, 178.9214
1106.000000, 75.304, 179.4050
1120.000000, 75.410, 179.7845
1138.000000, 75.550, -179.7596
1150.000000, 75.644, -179.4961
1172.000000, 75.816, -179.1215
1180.000000, 75.879, -179.0275
1206.000000, 76.072, -178.8629
1220.000000, 76.164, -178.8340
1241.000000, 76.296, -178.8170
1250.000000, 76.349, -178.8168
1265.000000, 76.431, -178.8366
1280.000000, 76.506, -178.8613
1315.000000, 76.658, -178.8604
1320.000000, 76.677, -178.8481
1340.000000, 76.755, -178.7681
1360.000000, 76.833, -178.6885
1380.000000, 76.908, -178.5873
1400.000000, 76.981, -178.4200
1430.000000, 77.094, -178.1384
1450.000000, 77.174, -177.9083
1475.000000, 77.273, -177.5958
1500.000000, 77.374, -177.3146
1525.000000, 77.481, -177.0474
1550.000000, 77.593, -176.7699
1575.000000, 77.709, -176.4489
1600.000000, 77.827, -176.1108
1625.000000, 77.949, -175.7917
1650.000000, 78.077, -175.4730
1675.000000, 78.215, -175.1820
1700.000000, 78.358, -174.9225
1725.000000, 78.505, -174.6726
1750.000000, 78.657, -174.4534
1775.000000, 78.814, -174.2772
1800.000000, 78.975, -174.1441
1825.000000, 79.139, -174.0633
1850.000000, 79.305, -174.0334
1875.000000, 79.473, -174.0770
1900.000000, 79.642, -174.1544
1925.000000, 79.810, -174.2512
1950.000000, 79.979, -174.4047
1975.000000, 80.147, -174.6181
2000.000000, 80.312, -174.8906
2030.000000, 80.506, -175.3226
2060.000000, 80.693, -175.8128
2090.000000, 80.872, -176.3723
2120.000000, 81.044, -177.0087
2140.000000, 81.153, -177.4590
2180.000000, 81.359, -178.4022
2200.000000, 81.455, -178.8930
2240.000000, 81.628, -179.8856
2270.000000, 81.750, 179.3552
2300.000000, 81.863, 178.5974
2330.000000, 81.966, 177.8449
2360.000000, 82.060, 177.1021
2400.000000, 82.180, 176.1308
2430.000000, 82.266, 175.4230
2470.000000, 82.378, 174.4940
2500.000000, 82.459, 173.7958
2540.000000, 82.567, 172.8805
2580.000000, 82.677, 171.9520
2620.000000, 82.789, 170.9879
2650.000000, 82.874, 170.2238
2690.000000, 82.988, 169.1340
2720.000000, 83.073, 168.2510
2760.000000, 83.183, 166.9661
2800.000000, 83.280, 165.5338
2850.000000, 83.383, 163.5214
2900.000000, 83.448, 161.2404
2950.000000, 83.448, 158.7151
3000.000000, 83.359, 156.0749
3040.000000, 83.211, 154.0703
3070.000000, 83.058, 152.7360
3110.000000, 82.811, 151.2968
3150.000000, 82.533, 150.3370
3200.000000, 82.185, 149.8275
3250.000000, 81.876, 149.9463
3300.000000, 81.633, 150.4996
3350.000000, 81.462, 151.2758
3400.000000, 81.351, 152.0588
3450.000000, 81.282, 152.7491
3500.000000, 81.244, 153.3660
3550.000000, 81.233, 153.9345
3600.000000, 81.245, 154.4329
3650.000000, 81.277, 154.8218
3700.000000, 81.328, 155.0868
3750.000000, 81.393, 155.2262
3820.000000, 81.502, 155.1677
3870.000000, 81.589, 154.9282
3950.000000, 81.726, 154.2130
4000.000000, 81.808, 153.5254
4060.000000, 81.893, 152.4608
4120.000000, 81.953, 151.1486
4180.000000, 81.979, 149.6111
4250.000000, 81.950, 147.5985
4310.000000, 81.867, 145.7785
4370.000000, 81.731, 143.9892
4440.000000, 81.511, 142.0648
4500.000000, 81.278, 140.6226
4550.000000, 81.062, 139.5868
4620.000000, 80.734, 138.4337
4680.000000, 80.442, 137.7492
4750.000000, 80.113, 137.1931
4820.000000, 79.794, 136.7866
4870.000000, 79.567, 136.5837
4940.000000, 79.251, 136.4281
5000.000000, 78.986, 136.4006
5080.000000, 78.639, 136.4456
5150.000000, 78.332, 136.5894
5220.000000, 78.023, 136.8586
5300.000000, 77.669, 137.3370
5380.000000, 77.320, 138.0290
5450.000000, 77.028, 138.8312
5520.000000, 76.751, 139.7646
5600.000000, 76.457, 140.9769
5700.000000, 76.133, 142.6518
5800.000000, 75.864, 144.4194
5900.000000, 75.647, 146.1516
6000.000000, 75.468, 147.8269
6080.000000, 75.350, 149.1669
6150.000000, 75.275, 150.3340
6220.000000, 75.227, 151.4582
6300.000000, 75.194, 152.6326
6400.000000, 75.182, 153.9165
6500.000000, 75.199, 154.9902
6600.000000, 75.250, 155.8214
6700.000000, 75.323, 156.3619
6800.000000, 75.412, 156.5593
6900.000000, 75.503, 156.4385
7000.000000, 75.577, 156.0617
7100.000000, 75.627, 155.4553
7200.000000, 75.653, 154.6943
7300.000000, 75.660, 153.8401
7400.000000, 75.647, 152.8833
7500.000000, 75.594, 151.8200
7620.000000, 75.466, 150.5684
7750.000000, 75.263, 149.5258
7880.000000, 75.016, 148.9785
8000.000000, 74.786, 148.9497
8120.000000, 74.562, 149.3322
8250.000000, 74.342, 150.1591
8380.000000, 74.146, 151.3273
8500.000000, 73.983, 152.5918
8620.000000, 73.811, 154.0369
8750.000000, 73.620, 156.5437
8850.000000, 73.593, 159.0881
9000.000000, 73.702, 162.1695
9120.000000, 73.802, 164.3226
9250.000000, 73.917, 166.6424
9380.000000, 74.056, 168.9210
9500.000000, 74.209, 170.9349
9620.000000, 74.377, 172.7810
9750.000000, 74.562, 174.5997
9880.000000, 74.737, 176.1963
10000.000000, 74.872, 177.5191
10150.000000, 74.992, 179.0247
10300.000000, 75.056, -179.5191
10440.000000, 75.060, -178.0600
10600.000000, 75.011, -176.1780
10750.000000, 74.923, -174.2142
10900.000000, 74.793, -171.9773
11060.000000, 74.619, -169.2039
11200.000000, 74.452, -166.4223
11380.000000, 74.235, -162.4205
11500.000000, 74.089, -159.5498
11720.000000, 73.832, -153.9724
11800.000000, 73.742, -151.8618
12060.000000, 73.470, -144.7432
12200.000000, 73.326, -140.7353
12410.000000, 73.111, -134.5417
12500.000000, 73.029, -131.8143
12650.000000, 72.928, -127.1871
12800.000000, 72.879, -122.6981
13150.000000, 72.777, -114.1221
13200.000000, 72.744, -113.0984
13400.000000, 72.536, -109.2892
13600.000000, 72.197, -105.6636
13800.000000, 71.732, -101.9229
14000.000000, 71.161, -97.9172
14300.000000, 70.124, -91.3980
14500.000000, 69.331, -86.6598
14750.000000, 68.210, -80.2446
15000.000000, 66.943, -73.2956
15250.000000, 65.445, -65.5888
15500.000000, 63.618, -54.5792
15750.000000, 61.970, -36.7452
16000.000000, 61.252, -19.0588
16250.000000, 60.699, -5.7908
16500.000000, 59.980, 7.9700
16750.000000, 59.341, 22.7237
17000.000000, 58.875, 37.5744
17250.000000, 58.507, 51.9578
17500.000000, 58.196, 65.5901
17750.000000, 57.947, 78.5877
18000.000000, 57.699, 90.8699
18250.000000, 57.387, 102.6830
18500.000000, 57.042, 114.2984
18750.000000, 56.782, 125.7105
19000.000000, 56.586, 134.9798
19250.000000, 56.208, 140.8496
19500.000000, 55.436, 144.5273
19750.000000, 54.297, 147.2144
20000.000000, 53.321, 149.0835
