* Measurement data measured by REW V5.31.3
* Source: Input device not selected, no input selected, L, volume: no control
* Format: 256k Log Swept Sine, 1 sweep at -12.0 dBFS with no timing reference
* Dated: Sep 9, 2024 7:04:00 PM
* REW Settings:
*  C-weighting compensation: Off
*  Target level: 75.0 dB
* Note: ; 
* Measurement: Davinci (Spinfit N5005 M) L
* Smoothing: 1/24 octave
* Frequency Step: 1/48 octave
* Start Frequency: 20.300 Hz
*
* Freq(Hz), SPL(dB), Phase(degrees)
20.299999, 83.314, -173.7592
20.600000, 83.316, -174.1080
20.900000, 83.315, -174.4814
21.200001, 83.312, -174.8440
21.400000, 83.309, -175.0760
21.799999, 83.305, -175.5177
22.000000, 83.304, -175.7316
22.400000, 83.307, -176.1618
22.700001, 83.310, -176.4982
23.000000, 83.313, -176.8496
23.299999, 83.313, -177.2094
23.600000, 83.309, -177.5646
24.000000, 83.300, -178.0066
24.299999, 83.291, -178.3045
24.700001, 83.282, -178.6614
25.000000, 83.278, -178.9119
25.400000, 83.274, -179.2452
25.799999, 83.271, -179.5914
26.200001, 83.265, -179.9496
26.500000, 83.257, 179.7803
26.900000, 83.243, 179.4272
27.200001, 83.230, 179.1712
27.600000, 83.211, 178.8437
28.000000, 83.193, 178.5308
28.500000, 83.174, 178.1531
29.000000, 83.163, 177.7758
29.500000, 83.161, 177.3845
30.000000, 83.163, 176.9760
30.400000, 83.162, 176.6407
30.700001, 83.159, 176.3862
31.100000, 83.150, 176.0462
31.500000, 83.134, 175.7123
32.000000, 83.108, 175.3199
32.500000, 83.087, 174.9620
33.000000, 83.080, 174.6077
33.500000, 83.084, 174.2064
34.000000, 83.086, 173.7506
34.500000, 83.072, 173.3008
35.000000, 83.045, 172.9313
35.500000, 83.015, 172.6517
36.000000, 82.991, 172.4026
36.500000, 82.972, 172.1235
37.000000, 82.951, 171.8060
37.500000, 82.927, 171.4795
38.200001, 82.893, 171.0544
38.700001, 82.874, 170.7830
39.500000, 82.863, 170.3613
40.000000, 82.868, 170.0398
40.599998, 82.868, 169.5627
41.200001, 82.843, 169.0913
41.799999, 82.802, 168.7685
42.500000, 82.766, 168.5432
43.099998, 82.749, 168.2953
43.700001, 82.726, 167.9420
44.400002, 82.684, 167.5164
45.000000, 82.650, 167.1973
45.500000, 82.625, 166.9514
46.200001, 82.588, 166.6578
46.799999, 82.558, 166.4682
47.500000, 82.535, 166.1931
48.200001, 82.513, 165.7444
48.700001, 82.488, 165.3985
49.400002, 82.448, 165.0505
50.000000, 82.421, 164.8762
50.799999, 82.386, 164.6279
51.500000, 82.345, 164.3328
52.200001, 82.308, 164.0138
53.000000, 82.277, 163.6986
53.799999, 82.247, 163.4951
54.500000, 82.221, 163.2773
55.200001, 82.188, 162.8580
56.000000, 82.138, 162.3196
57.000000, 82.118, 162.0023
58.000000, 82.134, 161.7309
59.000000, 82.080, 161.2747
60.000000, 81.997, 160.9083
60.799999, 81.958, 160.6400
61.500000, 81.933, 160.3821
62.200001, 81.904, 160.1180
63.000000, 81.865, 159.8195
64.000000, 81.815, 159.4518
65.000000, 81.769, 159.0951
66.000000, 81.717, 158.7626
67.000000, 81.662, 158.4490
68.000000, 81.610, 158.1436
69.000000, 81.565, 157.8516
70.000000, 81.519, 157.5461
71.000000, 81.462, 157.2165
72.000000, 81.401, 156.9165
73.000000, 81.349, 156.6584
74.000000, 81.299, 156.4161
75.000000, 81.250, 156.1600
76.199997, 81.193, 155.8241
77.500000, 81.128, 155.4803
78.800003, 81.056, 155.1567
80.000000, 80.989, 154.8682
81.199997, 80.924, 154.5875
82.500000, 80.852, 154.2611
83.800003, 80.780, 153.9570
85.000000, 80.718, 153.7316
86.199997, 80.657, 153.5123
87.500000, 80.593, 153.2595
88.500000, 80.543, 153.0800
90.000000, 80.457, 152.8246
91.199997, 80.383, 152.5939
92.500000, 80.312, 152.3361
93.800003, 80.246, 152.1009
95.000000, 80.186, 151.9116
96.199997, 80.121, 151.7650
97.500000, 80.049, 151.6193
98.800003, 79.978, 151.4417
100.000000, 79.914, 151.2846
101.500000, 79.833, 151.1206
103.000000, 79.749, 150.9861
104.400002, 79.672, 150.8342
106.000000, 79.583, 150.6173
107.500000, 79.503, 150.4276
109.000000, 79.424, 150.3355
110.599998, 79.340, 150.2606
112.000000, 79.265, 150.1754
113.800003, 79.170, 150.1063
115.000000, 79.106, 150.0565
117.199997, 78.985, 149.9015
118.000000, 78.941, 149.8433
120.599998, 78.803, 149.7773
122.000000, 78.728, 149.7841
124.099998, 78.616, 149.7289
125.000000, 78.571, 149.6975
126.500000, 78.497, 149.6744
128.000000, 78.425, 149.6909
131.500000, 78.247, 149.6844
132.000000, 78.222, 149.6985
134.000000, 78.124, 149.7948
136.000000, 78.028, 149.8873
138.000000, 77.934, 149.9609
140.000000, 77.840, 150.0664
143.000000, 77.694, 150.2238
145.000000, 77.594, 150.3245
147.500000, 77.478, 150.5229
150.000000, 77.369, 150.7227
152.500000, 77.260, 150.8947
155.000000, 77.148, 151.1424
157.500000, 77.042, 151.4507
160.000000, 76.942, 151.7859
162.500000, 76.847, 152.0390
165.000000, 76.752, 152.3156
167.500000, 76.652, 152.6285
170.000000, 76.556, 152.9357
172.500000, 76.465, 153.2892
175.000000, 76.376, 153.6310
177.500000, 76.294, 153.9961
180.000000, 76.210, 154.3663
182.500000, 76.127, 154.7346
185.000000, 76.050, 155.1333
187.500000, 75.976, 155.5217
190.000000, 75.900, 155.9321
192.500000, 75.831, 156.3644
195.000000, 75.769, 156.7863
197.500000, 75.704, 157.1990
200.000000, 75.637, 157.6349
203.000000, 75.560, 158.1449
206.000000, 75.488, 158.6653
209.000000, 75.421, 159.2097
212.000000, 75.360, 159.7603
214.000000, 75.318, 160.1221
218.000000, 75.234, 160.8720
220.000000, 75.193, 161.2484
224.000000, 75.117, 162.1098
227.000000, 75.068, 162.8723
230.000000, 75.033, 163.6667
233.000000, 75.017, 164.4132
236.000000, 75.014, 165.0721
240.000000, 75.023, 165.7877
243.000000, 75.032, 166.2318
247.000000, 75.034, 166.7393
250.000000, 75.030, 167.1135
254.000000, 75.017, 167.5798
258.000000, 75.002, 168.0645
262.000000, 74.985, 168.5594
265.000000, 74.974, 168.9284
269.000000, 74.963, 169.3939
272.000000, 74.958, 169.7366
276.000000, 74.953, 170.1934
280.000000, 74.944, 170.6310
285.000000, 74.933, 171.1755
290.000000, 74.925, 171.7322
295.000000, 74.925, 172.2935
300.000000, 74.926, 172.8061
304.000000, 74.927, 173.1825
307.000000, 74.927, 173.4550
311.000000, 74.928, 173.8123
315.000000, 74.931, 174.1717
320.000000, 74.940, 174.6014
325.000000, 74.947, 175.0167
330.000000, 74.948, 175.3876
335.000000, 74.954, 175.7374
340.000000, 74.959, 176.0921
345.000000, 74.959, 176.4443
350.000000, 74.962, 176.7778
355.000000, 74.974, 177.0954
360.000000, 74.989, 177.4152
365.000000, 75.000, 177.7127
370.000000, 75.005, 177.9947
375.000000, 75.006, 178.2652
382.000000, 75.012, 178.5887
387.000000, 75.016, 178.8079
395.000000, 75.022, 179.2050
400.000000, 75.022, 179.4331
406.000000, 75.020, 179.6810
412.000000, 75.017, 179.8843
418.000000, 75.012, -179.8999
425.000000, 75.000, -179.5999
431.000000, 74.992, -179.3282
437.000000, 74.989, -179.0702
444.000000, 74.979, -178.7842
450.000000, 74.968, -178.5388
455.000000, 74.960, -178.3395
462.000000, 74.950, -178.0501
468.000000, 74.934, -177.7654
475.000000, 74.919, -177.4178
482.000000, 74.911, -177.0801
487.000000, 74.903, -176.8257
494.000000, 74.896, -176.4745
500.000000, 74.896, -176.1963
508.000000, 74.893, -175.8766
515.000000, 74.889, -175.6309
522.000000, 74.885, -175.4000
530.000000, 74.876, -175.1150
538.000000, 74.860, -174.8145
545.000000, 74.847, -174.5800
552.000000, 74.837, -174.3397
560.000000, 74.824, -174.0436
570.000000, 74.799, -173.6704
580.000000, 74.772, -173.2843
590.000000, 74.744, -172.8678
600.000000, 74.715, -172.4701
608.000000, 74.695, -172.1468
615.000000, 74.676, -171.8417
622.000000, 74.657, -171.5262
630.000000, 74.635, -171.1583
640.000000, 74.606, -170.7142
650.000000, 74.577, -170.2485
660.000000, 74.548, -169.7887
670.000000, 74.521, -169.3007
680.000000, 74.497, -168.7803
690.000000, 74.474, -168.2688
700.000000, 74.450, -167.7678
710.000000, 74.423, -167.2477
720.000000, 74.398, -166.6873
730.000000, 74.375, -166.1336
740.000000, 74.351, -165.5844
750.000000, 74.329, -165.0068
762.000000, 74.304, -164.2531
775.000000, 74.284, -163.4372
788.000000, 74.263, -162.6104
800.000000, 74.247, -161.8050
812.000000, 74.236, -160.9977
825.000000, 74.233, -160.1700
838.000000, 74.235, -159.3079
850.000000, 74.235, -158.4563
862.000000, 74.242, -157.6168
875.000000, 74.250, -156.7410
885.000000, 74.258, -156.0656
900.000000, 74.279, -155.0317
912.000000, 74.302, -154.1934
925.000000, 74.333, -153.2686
938.000000, 74.371, -152.3467
950.000000, 74.415, -151.5030
962.000000, 74.459, -150.6762
975.000000, 74.510, -149.8177
988.000000, 74.569, -148.9815
1000.000000, 74.629, -148.2222
1015.000000, 74.702, -147.2343
1030.000000, 74.781, -146.2796
1044.000000, 74.865, -145.4519
1060.000000, 74.967, -144.5597
1075.000000, 75.066, -143.7599
1090.000000, 75.169, -142.9944
1106.000000, 75.281, -142.2087
1120.000000, 75.384, -141.5749
1138.000000, 75.520, -140.8493
1150.000000, 75.614, -140.4116
1172.000000, 75.782, -139.7192
1180.000000, 75.842, -139.4937
1206.000000, 76.036, -138.8766
1220.000000, 76.136, -138.6227
1241.000000, 76.273, -138.3076
1250.000000, 76.327, -138.1766
1265.000000, 76.411, -137.9728
1280.000000, 76.486, -137.7844
1315.000000, 76.646, -137.3015
1320.000000, 76.667, -137.2277
1340.000000, 76.747, -136.9174
1360.000000, 76.823, -136.5702
1380.000000, 76.897, -136.1929
1400.000000, 76.973, -135.8088
1430.000000, 77.086, -135.1862
1450.000000, 77.163, -134.7683
1475.000000, 77.258, -134.2317
1500.000000, 77.358, -133.6861
1525.000000, 77.464, -133.1290
1550.000000, 77.574, -132.5832
1575.000000, 77.686, -132.0483
1600.000000, 77.804, -131.5258
1625.000000, 77.925, -131.0023
1650.000000, 78.052, -130.5000
1675.000000, 78.185, -130.0209
1700.000000, 78.322, -129.5737
1725.000000, 78.462, -129.1613
1750.000000, 78.606, -128.8057
1775.000000, 78.754, -128.4935
1800.000000, 78.905, -128.2251
1825.000000, 79.057, -128.0099
1850.000000, 79.210, -127.8510
1875.000000, 79.364, -127.7497
1900.000000, 79.515, -127.6985
1925.000000, 79.666, -127.7083
1950.000000, 79.817, -127.7748
1975.000000, 79.962, -127.8773
2000.000000, 80.104, -128.0355
2030.000000, 80.268, -128.3136
2060.000000, 80.421, -128.6497
2090.000000, 80.566, -129.0302
2120.000000, 80.703, -129.4497
2140.000000, 80.790, -129.7401
2180.000000, 80.952, -130.3643
2200.000000, 81.025, -130.6848
2240.000000, 81.163, -131.3269
2270.000000, 81.259, -131.8255
2300.000000, 81.349, -132.3410
2330.000000, 81.433, -132.8428
2360.000000, 81.512, -133.3338
2400.000000, 81.614, -133.9806
2430.000000, 81.686, -134.4513
2470.000000, 81.779, -135.0766
2500.000000, 81.849, -135.5507
2540.000000, 81.945, -136.1845
2580.000000, 82.046, -136.8373
2620.000000, 82.156, -137.5348
2650.000000, 82.246, -138.1290
2690.000000, 82.376, -139.0693
2720.000000, 82.474, -139.9401
2760.000000, 82.591, -141.3422
2800.000000, 82.677, -142.9905
2850.000000, 82.728, -145.3097
2900.000000, 82.700, -147.7848
2950.000000, 82.583, -150.2772
3000.000000, 82.371, -152.5915
3040.000000, 82.137, -154.1315
3070.000000, 81.932, -155.0249
3110.000000, 81.638, -155.7928
3150.000000, 81.345, -156.0445
3200.000000, 81.022, -155.7501
3250.000000, 80.777, -155.0488
3300.000000, 80.608, -154.1889
3350.000000, 80.500, -153.3559
3400.000000, 80.436, -152.6485
3450.000000, 80.404, -152.1028
3500.000000, 80.394, -151.7068
3550.000000, 80.395, -151.4306
3600.000000, 80.403, -151.2770
3650.000000, 80.417, -151.2333
3700.000000, 80.433, -151.2905
3750.000000, 80.449, -151.4253
3820.000000, 80.476, -151.7159
3870.000000, 80.500, -152.0045
3950.000000, 80.548, -152.6703
4000.000000, 80.582, -153.2250
4060.000000, 80.621, -154.0892
4120.000000, 80.651, -155.1851
4180.000000, 80.660, -156.5000
4250.000000, 80.629, -158.2803
4310.000000, 80.558, -159.9309
4370.000000, 80.444, -161.6126
4440.000000, 80.258, -163.5070
4500.000000, 80.059, -164.9986
4550.000000, 79.875, -166.1234
4620.000000, 79.601, -167.5346
4680.000000, 79.358, -168.5968
4750.000000, 79.070, -169.6873
4820.000000, 78.779, -170.6825
4870.000000, 78.568, -171.3555
4940.000000, 78.262, -172.2539
5000.000000, 77.988, -172.9577
5080.000000, 77.606, -173.8179
5150.000000, 77.251, -174.4675
5220.000000, 76.881, -174.9200
5300.000000, 76.442, -175.1208
5380.000000, 76.001, -174.9785
5450.000000, 75.627, -174.6043
5520.000000, 75.272, -174.0005
5600.000000, 74.898, -173.0466
5700.000000, 74.491, -171.6656
5800.000000, 74.140, -170.2313
5900.000000, 73.843, -168.6949
6000.000000, 73.599, -167.0663
6080.000000, 73.448, -165.7495
6150.000000, 73.350, -164.6069
6220.000000, 73.278, -163.5057
6300.000000, 73.222, -162.3202
6400.000000, 73.202, -160.9269
6500.000000, 73.236, -159.6712
6600.000000, 73.324, -158.5717
6700.000000, 73.463, -157.5955
6800.000000, 73.651, -156.8713
6900.000000, 73.893, -156.4489
7000.000000, 74.185, -156.3245
7100.000000, 74.516, -156.5388
7200.000000, 74.887, -157.1208
7300.000000, 75.294, -158.0943
7400.000000, 75.741, -159.5221
7500.000000, 76.208, -161.5554
7620.000000, 76.755, -164.8809
7750.000000, 77.283, -169.4386
7880.000000, 77.693, -174.7142
8000.000000, 77.964, -179.9586
8120.000000, 78.127, 174.5262
8250.000000, 78.162, 168.5115
8380.000000, 78.052, 162.7530
8500.000000, 77.833, 157.8187
8620.000000, 77.487, 153.4506
8750.000000, 77.007, 150.1493
8850.000000, 76.717, 148.6526
9000.000000, 76.404, 146.3763
9120.000000, 76.137, 144.6108
9250.000000, 75.833, 143.0898
9380.000000, 75.538, 141.9769
9500.000000, 75.279, 141.2418
9620.000000, 75.035, 140.7589
9750.000000, 74.777, 140.4623
9880.000000, 74.520, 140.3919
10000.000000, 74.285, 140.5400
10150.000000, 73.998, 141.0609
10300.000000, 73.722, 142.0334
10440.000000, 73.495, 143.3084
10600.000000, 73.271, 144.9869
10750.000000, 73.084, 146.8433
10900.000000, 72.926, 148.9708
11060.000000, 72.800, 151.4609
11200.000000, 72.723, 153.8094
11380.000000, 72.672, 157.0016
11500.000000, 72.671, 159.1522
11720.000000, 72.734, 163.0865
11800.000000, 72.776, 164.5206
12060.000000, 72.954, 169.0401
12200.000000, 73.072, 171.3886
12410.000000, 73.288, 174.9933
12500.000000, 73.414, 176.6086
12650.000000, 73.694, 179.2011
12800.000000, 74.054, -178.6577
13150.000000, 75.007, -176.5391
13200.000000, 75.135, -176.5892
13400.000000, 75.587, -177.5955
13600.000000, 75.898, -179.6742
13800.000000, 76.032, 177.5414
14000.000000, 75.969, 174.4695
14300.000000, 75.538, 170.0403
14500.000000, 75.069, 167.4873
14750.000000, 74.311, 164.7776
15000.000000, 73.336, 162.5999
15250.000000, 72.053, 161.6572
15500.000000, 70.525, 164.3898
15750.000000, 69.372, 171.3356
16000.000000, 68.777, 177.0643
16250.000000, 68.201, -178.9544
16500.000000, 67.564, -174.5314
16750.000000, 67.007, -169.4782
17000.000000, 66.574, -164.6188
17250.000000, 66.214, -160.3734
17500.000000, 65.864, -156.6695
17750.000000, 65.495, -153.3306
18000.000000, 65.112, -150.1713
18250.000000, 64.745, -147.1426
18500.000000, 64.479, -144.7328
18750.000000, 64.304, -144.4772
19000.000000, 63.933, -147.4185
19250.000000, 62.992, -152.3769
19500.000000, 61.374, -156.5487
19750.000000, 59.387, -158.1524
20000.000000, 57.894, -157.9783
