* Measurement data measured by REW V5.31.3
* Source: Input device not selected, no input selected, L, volume: no control
* Format: 256k Log Swept Sine, 1 sweep at -12.0 dBFS with no timing reference
* Dated: Sep 10, 2024 11:40:58 AM
* REW Settings:
*  C-weighting compensation: Off
*  Target level: 75.0 dB
* Note: ; 
* Measurement: Davinci (Final E ML) L
* Smoothing: 1/24 octave
* Frequency Step: 1/48 octave
* Start Frequency: 20.300 Hz
*
* Freq(Hz), SPL(dB), Phase(degrees)
20.299999, 83.316, -175.3185
20.600000, 83.309, -175.6397
20.900000, 83.306, -176.0571
21.200001, 83.309, -176.5634
21.400000, 83.315, -176.9398
21.799999, 83.330, -177.7123
22.000000, 83.338, -178.0627
22.400000, 83.349, -178.5854
22.700001, 83.355, -178.7785
23.000000, 83.363, -178.8205
23.299999, 83.374, -178.7857
23.600000, 83.387, -178.7768
24.000000, 83.398, -178.9650
24.299999, 83.393, -179.3095
24.700001, 83.363, -179.9913
25.000000, 83.325, 179.4268
25.400000, 83.273, 178.7133
25.799999, 83.241, 178.1677
26.200001, 83.243, 177.7711
26.500000, 83.261, 177.5134
26.900000, 83.289, 177.1617
27.200001, 83.299, 176.8894
27.600000, 83.291, 176.5561
28.000000, 83.268, 176.2955
28.500000, 83.246, 176.0253
29.000000, 83.250, 175.6514
29.500000, 83.266, 175.0887
30.000000, 83.270, 174.4817
30.400000, 83.267, 174.1073
30.700001, 83.268, 173.9142
31.100000, 83.274, 173.7174
31.500000, 83.275, 173.4994
32.000000, 83.239, 173.1531
32.500000, 83.153, 172.8611
33.000000, 83.061, 172.7583
33.500000, 83.032, 172.6889
34.000000, 83.076, 172.3162
34.500000, 83.127, 171.5584
35.000000, 83.123, 170.7446
35.500000, 83.066, 170.2493
36.000000, 83.010, 170.0739
36.500000, 82.994, 169.8630
37.000000, 83.003, 169.3678
37.500000, 83.011, 168.7397
38.200001, 83.025, 168.1863
38.700001, 83.052, 168.0216
39.500000, 83.055, 167.5589
40.000000, 82.988, 167.1018
40.599998, 82.880, 166.6362
41.200001, 82.825, 166.3343
41.799999, 82.838, 166.0637
42.500000, 82.870, 165.7174
43.099998, 82.873, 165.4097
43.700001, 82.857, 165.0109
44.400002, 82.821, 164.3880
45.000000, 82.778, 163.8990
45.500000, 82.741, 163.6411
46.200001, 82.704, 163.4083
46.799999, 82.684, 163.0877
47.500000, 82.653, 162.5003
48.200001, 82.617, 161.9573
48.700001, 82.602, 161.6935
49.400002, 82.589, 161.3654
50.000000, 82.563, 160.9943
50.799999, 82.496, 160.4337
51.500000, 82.443, 159.9763
52.200001, 82.411, 159.5391
53.000000, 82.387, 159.1162
53.799999, 82.376, 158.8126
54.500000, 82.371, 158.5798
55.200001, 82.351, 158.3574
56.000000, 82.311, 158.0658
57.000000, 82.256, 157.4789
58.000000, 82.213, 156.8119
59.000000, 82.173, 156.3849
60.000000, 82.125, 156.1000
60.799999, 82.092, 155.7985
61.500000, 82.074, 155.4583
62.200001, 82.054, 155.1089
63.000000, 82.009, 154.8321
64.000000, 81.948, 154.7026
65.000000, 81.907, 154.4155
66.000000, 81.845, 154.0027
67.000000, 81.783, 153.5629
68.000000, 81.727, 152.9943
69.000000, 81.689, 152.6627
70.000000, 81.660, 152.4423
71.000000, 81.588, 152.1621
72.000000, 81.519, 151.7871
73.000000, 81.467, 151.2320
74.000000, 81.403, 150.7552
75.000000, 81.348, 150.3643
76.199997, 81.297, 149.9231
77.500000, 81.247, 149.6923
78.800003, 81.189, 149.2959
80.000000, 81.107, 148.9219
81.199997, 81.046, 148.7697
82.500000, 80.984, 148.2784
83.800003, 80.900, 147.8260
85.000000, 80.852, 147.5071
86.199997, 80.805, 147.0882
87.500000, 80.736, 146.7723
88.500000, 80.696, 146.6049
90.000000, 80.636, 146.0084
91.199997, 80.548, 145.5933
92.500000, 80.465, 145.4555
93.800003, 80.413, 145.2536
95.000000, 80.349, 144.9295
96.199997, 80.262, 144.7000
97.500000, 80.185, 144.5681
98.800003, 80.149, 144.3149
100.000000, 80.104, 143.9281
101.500000, 80.007, 143.5310
103.000000, 79.912, 143.3463
104.400002, 79.846, 143.2379
106.000000, 79.779, 142.8896
107.500000, 79.703, 142.5030
109.000000, 79.606, 142.2472
110.599998, 79.504, 142.1500
112.000000, 79.440, 142.1104
113.800003, 79.365, 141.9147
115.000000, 79.305, 141.7061
117.199997, 79.173, 141.2719
118.000000, 79.123, 141.1644
120.599998, 78.973, 141.0261
122.000000, 78.903, 140.9568
124.099998, 78.801, 140.7986
125.000000, 78.759, 140.7336
126.500000, 78.693, 140.6711
128.000000, 78.631, 140.6331
131.500000, 78.495, 140.4450
132.000000, 78.469, 140.4324
134.000000, 78.365, 140.3321
136.000000, 78.268, 140.2607
138.000000, 78.160, 140.2268
140.000000, 78.045, 140.1992
143.000000, 77.873, 140.1247
145.000000, 77.779, 140.0022
147.500000, 77.693, 139.7630
150.000000, 77.618, 139.7322
152.500000, 77.533, 140.0068
155.000000, 77.402, 140.2705
157.500000, 77.264, 140.2422
160.000000, 77.174, 140.1958
162.500000, 77.086, 140.3619
165.000000, 76.974, 140.5253
167.500000, 76.873, 140.5698
170.000000, 76.787, 140.7874
172.500000, 76.691, 141.0338
175.000000, 76.602, 141.2562
177.500000, 76.517, 141.4727
180.000000, 76.438, 141.6382
182.500000, 76.356, 141.9128
185.000000, 76.269, 142.1714
187.500000, 76.197, 142.4006
190.000000, 76.131, 142.6775
192.500000, 76.059, 142.9417
195.000000, 75.987, 143.1740
197.500000, 75.926, 143.4563
200.000000, 75.872, 143.7325
203.000000, 75.807, 144.0870
206.000000, 75.738, 144.4695
209.000000, 75.676, 144.7806
212.000000, 75.619, 145.1155
214.000000, 75.582, 145.3256
218.000000, 75.508, 145.7648
220.000000, 75.473, 146.0327
224.000000, 75.415, 146.5299
227.000000, 75.368, 146.9495
230.000000, 75.329, 147.3516
233.000000, 75.296, 147.6844
236.000000, 75.260, 148.0031
240.000000, 75.213, 148.4218
243.000000, 75.182, 148.7465
247.000000, 75.143, 149.1802
250.000000, 75.113, 149.5128
254.000000, 75.083, 149.9318
258.000000, 75.064, 150.2999
262.000000, 75.040, 150.6838
265.000000, 75.023, 150.9974
269.000000, 75.011, 151.3405
272.000000, 75.003, 151.6054
276.000000, 74.990, 151.9524
280.000000, 74.976, 152.2849
285.000000, 74.959, 152.6707
290.000000, 74.957, 152.9964
295.000000, 74.954, 153.3583
300.000000, 74.955, 153.7281
304.000000, 74.957, 154.0090
307.000000, 74.957, 154.1885
311.000000, 74.958, 154.4395
315.000000, 74.958, 154.6597
320.000000, 74.955, 154.9041
325.000000, 74.957, 155.1356
330.000000, 74.959, 155.3507
335.000000, 74.961, 155.5318
340.000000, 74.966, 155.6836
345.000000, 74.968, 155.8434
350.000000, 74.973, 156.0241
355.000000, 74.980, 156.1855
360.000000, 74.984, 156.2897
365.000000, 74.987, 156.3677
370.000000, 74.993, 156.4505
375.000000, 74.993, 156.5524
382.000000, 74.994, 156.6766
387.000000, 74.999, 156.7582
395.000000, 75.005, 156.8556
400.000000, 75.008, 156.8735
406.000000, 75.002, 156.9194
412.000000, 74.995, 156.9570
418.000000, 74.989, 157.0073
425.000000, 74.981, 157.0937
431.000000, 74.973, 157.1354
437.000000, 74.966, 157.1223
444.000000, 74.955, 157.1636
450.000000, 74.947, 157.2386
455.000000, 74.938, 157.2968
462.000000, 74.924, 157.3268
468.000000, 74.917, 157.3648
475.000000, 74.911, 157.4332
482.000000, 74.900, 157.5059
487.000000, 74.891, 157.5685
494.000000, 74.884, 157.6622
500.000000, 74.878, 157.7198
508.000000, 74.867, 157.7873
515.000000, 74.857, 157.8534
522.000000, 74.848, 157.8947
530.000000, 74.837, 157.9382
538.000000, 74.816, 158.0029
545.000000, 74.797, 158.0364
552.000000, 74.781, 158.0646
560.000000, 74.762, 158.1158
570.000000, 74.737, 158.1950
580.000000, 74.716, 158.2796
590.000000, 74.687, 158.4204
600.000000, 74.661, 158.5336
608.000000, 74.640, 158.6260
615.000000, 74.620, 158.7358
622.000000, 74.601, 158.8422
630.000000, 74.579, 158.9780
640.000000, 74.551, 159.1593
650.000000, 74.521, 159.3044
660.000000, 74.491, 159.4678
670.000000, 74.467, 159.6402
680.000000, 74.439, 159.8668
690.000000, 74.407, 160.1495
700.000000, 74.379, 160.4129
710.000000, 74.356, 160.7064
720.000000, 74.331, 161.0057
730.000000, 74.305, 161.3085
740.000000, 74.279, 161.6384
750.000000, 74.258, 161.9786
762.000000, 74.232, 162.4162
775.000000, 74.208, 162.9218
788.000000, 74.196, 163.4459
800.000000, 74.184, 163.9309
812.000000, 74.173, 164.4011
825.000000, 74.166, 164.9456
838.000000, 74.166, 165.5388
850.000000, 74.167, 166.0915
862.000000, 74.169, 166.6639
875.000000, 74.178, 167.3267
885.000000, 74.191, 167.8167
900.000000, 74.216, 168.5053
912.000000, 74.240, 169.0763
925.000000, 74.279, 169.7246
938.000000, 74.325, 170.3361
950.000000, 74.370, 170.8944
962.000000, 74.416, 171.4505
975.000000, 74.470, 172.0649
988.000000, 74.532, 172.6799
1000.000000, 74.599, 173.2278
1015.000000, 74.671, 173.8607
1030.000000, 74.752, 174.4359
1044.000000, 74.839, 174.9675
1060.000000, 74.943, 175.5364
1075.000000, 75.044, 175.9929
1090.000000, 75.149, 176.4300
1106.000000, 75.265, 176.8877
1120.000000, 75.369, 177.2416
1138.000000, 75.500, 177.6132
1150.000000, 75.588, 177.8325
1172.000000, 75.751, 178.1157
1180.000000, 75.808, 178.1807
1206.000000, 75.991, 178.3408
1220.000000, 76.082, 178.3811
1241.000000, 76.213, 178.3944
1250.000000, 76.266, 178.3866
1265.000000, 76.346, 178.3648
1280.000000, 76.422, 178.3349
1315.000000, 76.586, 178.2397
1320.000000, 76.607, 178.2288
1340.000000, 76.687, 178.2132
1360.000000, 76.764, 178.2282
1380.000000, 76.842, 178.2536
1400.000000, 76.917, 178.3080
1430.000000, 77.027, 178.4404
1450.000000, 77.100, 178.5498
1475.000000, 77.185, 178.7556
1500.000000, 77.277, 178.9695
1525.000000, 77.376, 179.2243
1550.000000, 77.482, 179.4785
1575.000000, 77.592, 179.7153
1600.000000, 77.703, 179.9735
1625.000000, 77.820, -179.7542
1650.000000, 77.948, -179.5086
1675.000000, 78.080, -179.2818
1700.000000, 78.215, -179.0734
1725.000000, 78.353, -178.9039
1750.000000, 78.496, -178.7674
1775.000000, 78.644, -178.6537
1800.000000, 78.795, -178.5756
1825.000000, 78.946, -178.5422
1850.000000, 79.101, -178.5559
1875.000000, 79.260, -178.6174
1900.000000, 79.417, -178.7139
1925.000000, 79.576, -178.8466
1950.000000, 79.735, -179.0409
1975.000000, 79.891, -179.3048
2000.000000, 80.047, -179.6190
2030.000000, 80.233, 179.9540
2060.000000, 80.410, 179.4494
2090.000000, 80.582, 178.8716
2120.000000, 80.746, 178.2484
2140.000000, 80.850, 177.8103
2180.000000, 81.042, 176.8650
2200.000000, 81.131, 176.3743
2240.000000, 81.298, 175.3647
2270.000000, 81.413, 174.6171
2300.000000, 81.519, 173.8833
2330.000000, 81.620, 173.1533
2360.000000, 81.715, 172.4240
2400.000000, 81.835, 171.4600
2430.000000, 81.923, 170.7517
2470.000000, 82.042, 169.8026
2500.000000, 82.130, 169.0698
2540.000000, 82.246, 168.0784
2580.000000, 82.364, 167.0509
2620.000000, 82.479, 165.9502
2650.000000, 82.563, 165.0641
2690.000000, 82.672, 163.7921
2720.000000, 82.752, 162.7438
2760.000000, 82.850, 161.2212
2800.000000, 82.934, 159.5433
2850.000000, 83.003, 157.2040
2900.000000, 83.019, 154.6083
2950.000000, 82.952, 151.8389
3000.000000, 82.778, 149.0952
3040.000000, 82.562, 147.0991
3070.000000, 82.357, 145.8401
3110.000000, 82.038, 144.6018
3150.000000, 81.700, 143.9732
3200.000000, 81.301, 144.0079
3250.000000, 80.977, 144.7110
3300.000000, 80.752, 145.7701
3350.000000, 80.620, 146.8566
3400.000000, 80.554, 147.8127
3450.000000, 80.530, 148.5970
3500.000000, 80.533, 149.1843
3550.000000, 80.550, 149.5885
3600.000000, 80.576, 149.8451
3650.000000, 80.605, 149.9742
3700.000000, 80.634, 150.0338
3750.000000, 80.664, 150.0117
3820.000000, 80.715, 149.8221
3870.000000, 80.759, 149.5744
3950.000000, 80.838, 148.9547
4000.000000, 80.886, 148.4138
4060.000000, 80.931, 147.5747
4120.000000, 80.959, 146.5353
4180.000000, 80.963, 145.3005
4250.000000, 80.926, 143.6652
4310.000000, 80.850, 142.1669
4370.000000, 80.728, 140.6349
4440.000000, 80.534, 138.9185
4500.000000, 80.326, 137.5892
4550.000000, 80.133, 136.6001
4620.000000, 79.842, 135.4287
4680.000000, 79.582, 134.6350
4750.000000, 79.276, 133.9100
4820.000000, 78.964, 133.3267
4870.000000, 78.735, 132.9899
4940.000000, 78.406, 132.6258
5000.000000, 78.118, 132.3944
5080.000000, 77.724, 132.2007
5150.000000, 77.370, 132.1689
5220.000000, 77.007, 132.3195
5300.000000, 76.595, 132.7177
5380.000000, 76.192, 133.3764
5450.000000, 75.847, 134.1685
5520.000000, 75.513, 135.1530
5600.000000, 75.147, 136.4816
5700.000000, 74.730, 138.3140
5800.000000, 74.359, 140.3220
5900.000000, 74.019, 142.5640
6000.000000, 73.728, 145.0477
6080.000000, 73.546, 147.0863
6150.000000, 73.423, 148.8575
6220.000000, 73.334, 150.5962
6300.000000, 73.269, 152.5004
6400.000000, 73.236, 154.7532
6500.000000, 73.256, 156.8875
6600.000000, 73.318, 158.8135
6700.000000, 73.419, 160.5171
6800.000000, 73.565, 161.9818
6900.000000, 73.745, 163.1909
7000.000000, 73.955, 164.1057
7100.000000, 74.193, 164.7401
7200.000000, 74.446, 165.0882
7300.000000, 74.708, 165.1581
7400.000000, 74.983, 164.8938
7500.000000, 75.254, 164.1881
7620.000000, 75.543, 162.9561
7750.000000, 75.802, 161.2885
7880.000000, 75.980, 159.4446
8000.000000, 76.088, 157.8670
8120.000000, 76.158, 156.4453
8250.000000, 76.193, 155.0547
8380.000000, 76.184, 153.8708
8500.000000, 76.137, 153.0237
8620.000000, 76.045, 152.4768
8750.000000, 75.891, 152.6523
8850.000000, 75.816, 153.5335
9000.000000, 75.828, 154.9291
9120.000000, 75.863, 155.9133
9250.000000, 75.911, 157.0982
9380.000000, 75.976, 158.4071
9500.000000, 76.049, 159.6433
9620.000000, 76.131, 160.8522
9750.000000, 76.219, 162.1430
9880.000000, 76.298, 163.3495
10000.000000, 76.354, 164.3893
10150.000000, 76.384, 165.6902
10300.000000, 76.358, 167.1414
10440.000000, 76.294, 168.7799
10600.000000, 76.189, 170.9755
10750.000000, 76.060, 173.2934
10900.000000, 75.909, 176.0223
11060.000000, 75.745, 179.3892
11200.000000, 75.613, -177.3165
11380.000000, 75.467, -172.7156
11500.000000, 75.388, -169.4825
11720.000000, 75.281, -163.2923
11800.000000, 75.252, -161.0077
12060.000000, 75.185, -153.6080
12200.000000, 75.155, -149.6360
12410.000000, 75.120, -143.5282
12500.000000, 75.120, -140.8369
12650.000000, 75.156, -136.3594
12800.000000, 75.247, -132.1425
13150.000000, 75.501, -124.6599
13200.000000, 75.516, -123.8802
13400.000000, 75.479, -121.2293
13600.000000, 75.258, -118.8936
13800.000000, 74.861, -116.4727
14000.000000, 74.318, -113.7267
14300.000000, 73.283, -108.6119
14500.000000, 72.487, -104.5260
14750.000000, 71.394, -98.7322
15000.000000, 70.169, -92.4318
15250.000000, 68.711, -85.3677
15500.000000, 66.945, -75.6224
15750.000000, 65.271, -59.7644
16000.000000, 64.363, -42.4139
16250.000000, 63.771, -28.3823
16500.000000, 63.122, -14.8498
16750.000000, 62.527, -0.6378
17000.000000, 62.054, 13.6497
17250.000000, 61.681, 27.5225
17500.000000, 61.349, 40.9856
17750.000000, 61.019, 54.2041
18000.000000, 60.707, 67.5855
18250.000000, 60.465, 81.5692
18500.000000, 60.437, 96.2734
18750.000000, 60.826, 109.7122
19000.000000, 61.544, 118.2157
19250.000000, 62.047, 119.9080
19500.000000, 61.785, 116.5668
19750.000000, 60.646, 111.9373
20000.000000, 59.477, 109.1807
