* Measurement data measured by REW V5.31.3
* Source: Input device not selected, no input selected, L, volume: no control
* Format: 256k Log Swept Sine, 1 sweep at -12.0 dBFS with no timing reference
* Dated: Sep 9, 2024 6:21:29 PM
* REW Settings:
*  C-weighting compensation: Off
*  Target level: 75.0 dB
* Note: ; 
* Measurement: Davinci (Spiral Dots M) L
* Smoothing: 1/24 octave
* Frequency Step: 1/48 octave
* Start Frequency: 20.300 Hz
*
* Freq(Hz), SPL(dB), Phase(degrees)
20.299999, 83.598, -173.8638
20.600000, 83.592, -174.2324
20.900000, 83.583, -174.5979
21.200001, 83.576, -174.9300
21.400000, 83.571, -175.1331
21.799999, 83.562, -175.4976
22.000000, 83.558, -175.6604
22.400000, 83.553, -175.9608
22.700001, 83.552, -176.1874
23.000000, 83.555, -176.4423
23.299999, 83.558, -176.7450
23.600000, 83.561, -177.0997
24.000000, 83.558, -177.6249
24.299999, 83.550, -178.0201
24.700001, 83.535, -178.4971
25.000000, 83.525, -178.8044
25.400000, 83.517, -179.1686
25.799999, 83.515, -179.5289
26.200001, 83.512, -179.9212
26.500000, 83.507, 179.7679
26.900000, 83.494, 179.3627
27.200001, 83.484, 179.0871
27.600000, 83.474, 178.7650
28.000000, 83.471, 178.4709
28.500000, 83.470, 178.0873
29.000000, 83.459, 177.6695
29.500000, 83.431, 177.2617
30.000000, 83.398, 176.8956
30.400000, 83.380, 176.6100
30.700001, 83.372, 176.3805
31.100000, 83.364, 176.0525
31.500000, 83.354, 175.7303
32.000000, 83.338, 175.3983
32.500000, 83.327, 175.1298
33.000000, 83.327, 174.7899
33.500000, 83.323, 174.2745
34.000000, 83.298, 173.6690
34.500000, 83.262, 173.1720
35.000000, 83.247, 172.8670
35.500000, 83.265, 172.6416
36.000000, 83.291, 172.3773
36.500000, 83.292, 172.1280
37.000000, 83.262, 172.0166
37.500000, 83.225, 172.0121
38.200001, 83.172, 171.8339
38.700001, 83.109, 171.5022
39.500000, 82.993, 170.9677
40.000000, 82.972, 170.6479
40.599998, 83.013, 170.0433
41.200001, 83.068, 169.2402
41.799999, 83.092, 168.5706
42.500000, 83.079, 168.1342
43.099998, 83.024, 167.9292
43.700001, 82.943, 167.8424
44.400002, 82.898, 167.7476
45.000000, 82.927, 167.3259
45.500000, 82.944, 166.7413
46.200001, 82.877, 166.2028
46.799999, 82.782, 166.3531
47.500000, 82.730, 166.5568
48.200001, 82.712, 165.9404
48.700001, 82.682, 165.2401
49.400002, 82.650, 164.6819
50.000000, 82.683, 164.6866
50.799999, 82.748, 164.5450
51.500000, 82.703, 164.0091
52.200001, 82.583, 163.5083
53.000000, 82.493, 163.2293
53.799999, 82.478, 163.0829
54.500000, 82.475, 162.9861
55.200001, 82.463, 162.7990
56.000000, 82.438, 162.4012
57.000000, 82.408, 161.9762
58.000000, 82.393, 161.5620
59.000000, 82.322, 160.9916
60.000000, 82.243, 160.4666
60.799999, 82.190, 160.0270
61.500000, 82.144, 159.7518
62.200001, 82.119, 159.5797
63.000000, 82.106, 159.3511
64.000000, 82.060, 159.1220
65.000000, 82.009, 158.9494
66.000000, 81.958, 158.4701
67.000000, 81.887, 158.0410
68.000000, 81.842, 157.7800
69.000000, 81.804, 157.3756
70.000000, 81.748, 157.0461
71.000000, 81.702, 156.8269
72.000000, 81.658, 156.4512
73.000000, 81.597, 156.0920
74.000000, 81.543, 155.9276
75.000000, 81.505, 155.7210
76.199997, 81.443, 155.3033
77.500000, 81.354, 155.0187
78.800003, 81.285, 154.7767
80.000000, 81.224, 154.3517
81.199997, 81.144, 153.9651
82.500000, 81.068, 153.8040
83.800003, 81.026, 153.5739
85.000000, 80.966, 153.1181
86.199997, 80.872, 152.8510
87.500000, 80.800, 152.8553
88.500000, 80.779, 152.7026
90.000000, 80.717, 152.1490
91.199997, 80.622, 151.8253
92.500000, 80.531, 151.7863
93.800003, 80.485, 151.7766
95.000000, 80.452, 151.5432
96.199997, 80.391, 151.2284
97.500000, 80.295, 150.9531
98.800003, 80.206, 150.7708
100.000000, 80.135, 150.6912
101.500000, 80.053, 150.5869
103.000000, 79.980, 150.4332
104.400002, 79.914, 150.2703
106.000000, 79.835, 150.0508
107.500000, 79.756, 149.8265
109.000000, 79.678, 149.6196
110.599998, 79.592, 149.4826
112.000000, 79.513, 149.4158
113.800003, 79.412, 149.3276
115.000000, 79.348, 149.2253
117.199997, 79.231, 149.0199
118.000000, 79.190, 148.9664
120.599998, 79.054, 148.9083
122.000000, 78.983, 148.9009
124.099998, 78.875, 148.8820
125.000000, 78.828, 148.8569
126.500000, 78.749, 148.7986
128.000000, 78.672, 148.7727
131.500000, 78.492, 148.8746
132.000000, 78.465, 148.8866
134.000000, 78.356, 148.9120
136.000000, 78.257, 148.9213
138.000000, 78.164, 148.9584
140.000000, 78.072, 148.9843
143.000000, 77.927, 149.1696
145.000000, 77.833, 149.2995
147.500000, 77.717, 149.4722
150.000000, 77.603, 149.7120
152.500000, 77.489, 149.8891
155.000000, 77.381, 150.0454
157.500000, 77.279, 150.2762
160.000000, 77.177, 150.5458
162.500000, 77.072, 150.8263
165.000000, 76.969, 151.0617
167.500000, 76.870, 151.3387
170.000000, 76.775, 151.6662
172.500000, 76.684, 151.9926
175.000000, 76.600, 152.3324
177.500000, 76.515, 152.6888
180.000000, 76.429, 153.0399
182.500000, 76.347, 153.3887
185.000000, 76.268, 153.7593
187.500000, 76.189, 154.1549
190.000000, 76.111, 154.5202
192.500000, 76.040, 154.8816
195.000000, 75.971, 155.2732
197.500000, 75.904, 155.6773
200.000000, 75.841, 156.1287
203.000000, 75.767, 156.6797
206.000000, 75.702, 157.1898
209.000000, 75.647, 157.6689
212.000000, 75.587, 158.1469
214.000000, 75.547, 158.4872
218.000000, 75.465, 159.1652
220.000000, 75.427, 159.5056
224.000000, 75.362, 160.1743
227.000000, 75.314, 160.6818
230.000000, 75.273, 161.1778
233.000000, 75.235, 161.6644
236.000000, 75.195, 162.1583
240.000000, 75.149, 162.8056
243.000000, 75.121, 163.2509
247.000000, 75.085, 163.8872
250.000000, 75.059, 164.3694
254.000000, 75.031, 164.9912
258.000000, 75.009, 165.5699
262.000000, 74.982, 166.1131
265.000000, 74.961, 166.5282
269.000000, 74.937, 167.0654
272.000000, 74.920, 167.4628
276.000000, 74.902, 167.9882
280.000000, 74.887, 168.4883
285.000000, 74.870, 169.0993
290.000000, 74.858, 169.6792
295.000000, 74.844, 170.2052
300.000000, 74.832, 170.7236
304.000000, 74.825, 171.1497
307.000000, 74.819, 171.4701
311.000000, 74.813, 171.8777
315.000000, 74.806, 172.2608
320.000000, 74.792, 172.7482
325.000000, 74.776, 173.2419
330.000000, 74.764, 173.7425
335.000000, 74.751, 174.2775
340.000000, 74.733, 174.8216
345.000000, 74.723, 175.4470
350.000000, 74.727, 176.1385
355.000000, 74.743, 176.8319
360.000000, 74.779, 177.4543
365.000000, 74.833, 177.9749
370.000000, 74.894, 178.3505
375.000000, 74.952, 178.5740
382.000000, 75.013, 178.7140
387.000000, 75.039, 178.7685
395.000000, 75.061, 178.8732
400.000000, 75.066, 178.9376
406.000000, 75.067, 179.0584
412.000000, 75.066, 179.2242
418.000000, 75.062, 179.3837
425.000000, 75.054, 179.5637
431.000000, 75.040, 179.7419
437.000000, 75.027, 179.9529
444.000000, 75.011, -179.8123
450.000000, 74.994, -179.6054
455.000000, 74.979, -179.4341
462.000000, 74.962, -179.1562
468.000000, 74.944, -178.8917
475.000000, 74.925, -178.6066
482.000000, 74.911, -178.3183
487.000000, 74.902, -178.0748
494.000000, 74.888, -177.7408
500.000000, 74.878, -177.4938
508.000000, 74.869, -177.1475
515.000000, 74.856, -176.8435
522.000000, 74.845, -176.5725
530.000000, 74.834, -176.2838
538.000000, 74.823, -176.0091
545.000000, 74.813, -175.7646
552.000000, 74.795, -175.5191
560.000000, 74.774, -175.2238
570.000000, 74.758, -174.8347
580.000000, 74.732, -174.4471
590.000000, 74.702, -174.0757
600.000000, 74.668, -173.6541
608.000000, 74.645, -173.3226
615.000000, 74.625, -173.0089
622.000000, 74.603, -172.6835
630.000000, 74.579, -172.3131
640.000000, 74.551, -171.8438
650.000000, 74.524, -171.3737
660.000000, 74.496, -170.9265
670.000000, 74.467, -170.4130
680.000000, 74.438, -169.9082
690.000000, 74.410, -169.3953
700.000000, 74.383, -168.8693
710.000000, 74.357, -168.3647
720.000000, 74.331, -167.8326
730.000000, 74.308, -167.2661
740.000000, 74.287, -166.6651
750.000000, 74.266, -166.0865
762.000000, 74.240, -165.3651
775.000000, 74.220, -164.5420
788.000000, 74.200, -163.7075
800.000000, 74.186, -162.9505
812.000000, 74.177, -162.1793
825.000000, 74.166, -161.3144
838.000000, 74.161, -160.4149
850.000000, 74.163, -159.5875
862.000000, 74.174, -158.7821
875.000000, 74.189, -157.8648
885.000000, 74.201, -157.1802
900.000000, 74.222, -156.1663
912.000000, 74.249, -155.3137
925.000000, 74.288, -154.4343
938.000000, 74.328, -153.6059
950.000000, 74.364, -152.8141
962.000000, 74.408, -152.0268
975.000000, 74.459, -151.1877
988.000000, 74.510, -150.3287
1000.000000, 74.565, -149.5556
1015.000000, 74.647, -148.7430
1030.000000, 74.726, -147.9704
1044.000000, 74.798, -147.2116
1060.000000, 74.878, -146.3434
1075.000000, 74.960, -145.5658
1090.000000, 75.050, -144.7914
1106.000000, 75.149, -143.9739
1120.000000, 75.242, -143.3020
1138.000000, 75.373, -142.5375
1150.000000, 75.464, -142.0544
1172.000000, 75.628, -141.3065
1180.000000, 75.687, -141.0896
1206.000000, 75.873, -140.4767
1220.000000, 75.965, -140.2132
1241.000000, 76.096, -139.8768
1250.000000, 76.147, -139.7397
1265.000000, 76.226, -139.5312
1280.000000, 76.299, -139.3247
1315.000000, 76.452, -138.8167
1320.000000, 76.472, -138.7374
1340.000000, 76.550, -138.4363
1360.000000, 76.623, -138.1644
1380.000000, 76.688, -137.8658
1400.000000, 76.744, -137.4722
1430.000000, 76.831, -136.7875
1450.000000, 76.896, -136.2913
1475.000000, 76.984, -135.6452
1500.000000, 77.077, -135.0610
1525.000000, 77.173, -134.4748
1550.000000, 77.271, -133.8535
1575.000000, 77.375, -133.2299
1600.000000, 77.480, -132.6120
1625.000000, 77.591, -131.9943
1650.000000, 77.714, -131.4159
1675.000000, 77.840, -130.8807
1700.000000, 77.971, -130.3679
1725.000000, 78.107, -129.8451
1750.000000, 78.247, -129.3626
1775.000000, 78.391, -128.9297
1800.000000, 78.539, -128.5457
1825.000000, 78.690, -128.2182
1850.000000, 78.844, -127.9448
1875.000000, 78.999, -127.7197
1900.000000, 79.156, -127.5501
1925.000000, 79.313, -127.4416
1950.000000, 79.469, -127.3923
1975.000000, 79.625, -127.3726
2000.000000, 79.779, -127.3993
2030.000000, 79.961, -127.5495
2060.000000, 80.136, -127.7741
2090.000000, 80.305, -128.0576
2120.000000, 80.467, -128.3931
2140.000000, 80.569, -128.6452
2180.000000, 80.762, -129.2231
2200.000000, 80.853, -129.5446
2240.000000, 81.022, -130.2147
2270.000000, 81.136, -130.7188
2300.000000, 81.243, -131.2448
2330.000000, 81.345, -131.7814
2360.000000, 81.442, -132.3093
2400.000000, 81.566, -133.0075
2430.000000, 81.657, -133.5441
2470.000000, 81.775, -134.2800
2500.000000, 81.861, -134.8491
2540.000000, 81.975, -135.6442
2580.000000, 82.089, -136.5052
2620.000000, 82.201, -137.4437
2650.000000, 82.284, -138.2272
2690.000000, 82.389, -139.3822
2720.000000, 82.461, -140.3333
2760.000000, 82.543, -141.7417
2800.000000, 82.604, -143.3216
2850.000000, 82.633, -145.4763
2900.000000, 82.597, -147.7814
2950.000000, 82.484, -150.1221
3000.000000, 82.281, -152.2950
3040.000000, 82.056, -153.7567
3070.000000, 81.860, -154.5982
3110.000000, 81.580, -155.2965
3150.000000, 81.302, -155.4951
3200.000000, 81.000, -155.1847
3250.000000, 80.773, -154.4832
3300.000000, 80.625, -153.6395
3350.000000, 80.537, -152.8934
3400.000000, 80.487, -152.3376
3450.000000, 80.458, -151.9649
3500.000000, 80.437, -151.7092
3550.000000, 80.422, -151.5288
3600.000000, 80.412, -151.4184
3650.000000, 80.407, -151.3773
3700.000000, 80.402, -151.3757
3750.000000, 80.398, -151.4191
3820.000000, 80.405, -151.5252
3870.000000, 80.418, -151.6527
3950.000000, 80.459, -151.9991
4000.000000, 80.492, -152.3305
4060.000000, 80.533, -152.9212
4120.000000, 80.575, -153.7213
4180.000000, 80.609, -154.7489
4250.000000, 80.618, -156.2163
4310.000000, 80.588, -157.6340
4370.000000, 80.517, -159.1331
4440.000000, 80.384, -160.8811
4500.000000, 80.232, -162.3116
4550.000000, 80.084, -163.4102
4620.000000, 79.852, -164.7531
4680.000000, 79.642, -165.7512
4750.000000, 79.392, -166.7607
4820.000000, 79.139, -167.6214
4870.000000, 78.956, -168.1697
4940.000000, 78.701, -168.8741
5000.000000, 78.488, -169.4420
5080.000000, 78.206, -170.1709
5150.000000, 77.946, -170.7872
5220.000000, 77.665, -171.3241
5300.000000, 77.324, -171.7766
5380.000000, 76.976, -172.0034
5450.000000, 76.669, -172.0017
5520.000000, 76.366, -171.7845
5600.000000, 76.038, -171.2916
5700.000000, 75.668, -170.3941
5800.000000, 75.346, -169.2780
5900.000000, 75.076, -167.9575
6000.000000, 74.865, -166.5013
6080.000000, 74.746, -165.2792
6150.000000, 74.683, -164.2203
6220.000000, 74.655, -163.2000
6300.000000, 74.661, -162.0963
6400.000000, 74.723, -160.8293
6500.000000, 74.849, -159.7419
6600.000000, 75.040, -158.9079
6700.000000, 75.295, -158.3633
6800.000000, 75.608, -158.1781
6900.000000, 75.978, -158.3820
7000.000000, 76.395, -159.0154
7100.000000, 76.851, -160.1465
7200.000000, 77.343, -161.8229
7300.000000, 77.874, -164.0910
7400.000000, 78.438, -167.1442
7500.000000, 78.987, -171.1891
7620.000000, 79.557, -177.2962
7750.000000, 79.985, 174.7672
7880.000000, 80.130, 166.1072
8000.000000, 80.004, 158.1943
8120.000000, 79.668, 150.8744
8250.000000, 79.122, 143.9991
8380.000000, 78.459, 138.3911
8500.000000, 77.797, 134.2736
8620.000000, 77.100, 131.0654
8750.000000, 76.308, 128.9744
8850.000000, 75.768, 128.4854
9000.000000, 75.147, 128.1534
9120.000000, 74.714, 127.9547
9250.000000, 74.269, 128.0170
9380.000000, 73.859, 128.3762
9500.000000, 73.512, 128.9443
9620.000000, 73.190, 129.7153
9750.000000, 72.866, 130.7477
9880.000000, 72.569, 132.0029
10000.000000, 72.316, 133.3597
10150.000000, 72.021, 135.2993
10300.000000, 71.753, 137.5611
10440.000000, 71.533, 139.9716
10600.000000, 71.334, 142.9901
10750.000000, 71.187, 145.9564
10900.000000, 71.074, 149.1168
11060.000000, 71.000, 152.6675
11200.000000, 70.978, 155.9001
11380.000000, 71.001, 160.2181
11500.000000, 71.050, 163.1636
11720.000000, 71.214, 168.5255
11800.000000, 71.298, 170.4254
12060.000000, 71.651, 176.4736
12200.000000, 71.883, 179.5735
12410.000000, 72.269, -175.8800
12500.000000, 72.459, -173.8999
12650.000000, 72.830, -170.6393
12800.000000, 73.284, -167.6428
13150.000000, 74.569, -163.1034
13200.000000, 74.760, -162.8076
13400.000000, 75.501, -162.4867
13600.000000, 76.170, -163.4480
13800.000000, 76.718, -165.5289
14000.000000, 77.108, -168.4198
14300.000000, 77.373, -173.5697
14500.000000, 77.362, -177.2486
14750.000000, 77.159, 177.9001
15000.000000, 76.696, 172.7090
15250.000000, 75.837, 167.6180
15500.000000, 74.498, 165.0557
15750.000000, 73.194, 167.7019
16000.000000, 72.536, 170.6700
16250.000000, 71.936, 170.8064
16500.000000, 71.072, 170.8699
16750.000000, 70.083, 172.1216
17000.000000, 69.086, 174.4125
17250.000000, 68.111, 177.2742
17500.000000, 67.140, -179.4522
17750.000000, 66.159, -175.7117
18000.000000, 65.188, -171.2269
18250.000000, 64.297, -165.9530
18500.000000, 63.561, -160.3527
18750.000000, 63.035, -155.7520
19000.000000, 62.566, -153.8043
19250.000000, 61.815, -154.2446
19500.000000, 60.565, -154.9905
19750.000000, 59.061, -154.3898
20000.000000, 58.043, -153.1924
