* Measurement data measured by REW V5.31.3
* Source: Input device not selected, no input selected, L, volume: no control
* Format: 256k Log Swept Sine, 1 sweep at -12.0 dBFS with no timing reference
* Dated: Sep 14, 2024 12:02:31 AM
* REW Settings:
*  C-weighting compensation: Off
*  Target level: 75.0 dB
* Note: ; 
* Measurement: Davinci (Spring L) L
* Smoothing: 1/24 octave
* Frequency Step: 1/48 octave
* Start Frequency: 20.300 Hz
*
* Freq(Hz), SPL(dB), Phase(degrees)
20.299999, 83.379, -170.8681
20.600000, 83.377, -171.1312
20.900000, 83.370, -171.4429
21.200001, 83.358, -171.7841
21.400000, 83.349, -172.0220
21.799999, 83.333, -172.5052
22.000000, 83.330, -172.7441
22.400000, 83.332, -173.2099
22.700001, 83.341, -173.5503
23.000000, 83.353, -173.8842
23.299999, 83.362, -174.2082
23.600000, 83.365, -174.5144
24.000000, 83.356, -174.8812
24.299999, 83.341, -175.1237
24.700001, 83.319, -175.4219
25.000000, 83.306, -175.6482
25.400000, 83.294, -175.9800
25.799999, 83.290, -176.3492
26.200001, 83.289, -176.7291
26.500000, 83.288, -176.9989
26.900000, 83.282, -177.3233
27.200001, 83.274, -177.5446
27.600000, 83.259, -177.8310
28.000000, 83.239, -178.1295
28.500000, 83.214, -178.5262
29.000000, 83.196, -178.9238
29.500000, 83.190, -179.2915
30.000000, 83.187, -179.6135
30.400000, 83.178, -179.8352
30.700001, 83.164, -179.9839
31.100000, 83.139, 179.8246
31.500000, 83.113, 179.6118
32.000000, 83.087, 179.2802
32.500000, 83.069, 178.9023
33.000000, 83.056, 178.5755
33.500000, 83.045, 178.3678
34.000000, 83.028, 178.2329
34.500000, 82.995, 178.0696
35.000000, 82.940, 177.8522
35.500000, 82.879, 177.6517
36.000000, 82.846, 177.5130
36.500000, 82.859, 177.3656
37.000000, 82.901, 177.1092
37.500000, 82.933, 176.7533
38.200001, 82.935, 176.2919
38.700001, 82.928, 176.0419
39.500000, 82.932, 175.5806
40.000000, 82.925, 175.2250
40.599998, 82.892, 174.8558
41.200001, 82.846, 174.5794
41.799999, 82.806, 174.2768
42.500000, 82.772, 173.8399
43.099998, 82.762, 173.5088
43.700001, 82.769, 173.2548
44.400002, 82.770, 172.9694
45.000000, 82.739, 172.7151
45.500000, 82.695, 172.5162
46.200001, 82.634, 172.2360
46.799999, 82.597, 171.9689
47.500000, 82.571, 171.6661
48.200001, 82.557, 171.4052
48.700001, 82.544, 171.2367
49.400002, 82.512, 171.0392
50.000000, 82.476, 170.9128
50.799999, 82.431, 170.7303
51.500000, 82.391, 170.5380
52.200001, 82.355, 170.3976
53.000000, 82.331, 170.2851
53.799999, 82.323, 170.0807
54.500000, 82.317, 169.8053
55.200001, 82.305, 169.5073
56.000000, 82.273, 169.2436
57.000000, 82.221, 169.0508
58.000000, 82.186, 168.6940
59.000000, 82.149, 168.1530
60.000000, 82.098, 167.7420
60.799999, 82.058, 167.4841
61.500000, 82.030, 167.2481
62.200001, 82.005, 167.0129
63.000000, 81.974, 166.7842
64.000000, 81.925, 166.5397
65.000000, 81.870, 166.2605
66.000000, 81.815, 166.0006
67.000000, 81.767, 165.7664
68.000000, 81.721, 165.5049
69.000000, 81.667, 165.2892
70.000000, 81.608, 165.1247
71.000000, 81.554, 164.8959
72.000000, 81.508, 164.6269
73.000000, 81.464, 164.3790
74.000000, 81.406, 164.1346
75.000000, 81.342, 163.9376
76.199997, 81.279, 163.6972
77.500000, 81.216, 163.4725
78.800003, 81.152, 163.3618
80.000000, 81.078, 163.2325
81.199997, 81.016, 163.0242
82.500000, 80.964, 162.7751
83.800003, 80.891, 162.5903
85.000000, 80.814, 162.4249
86.199997, 80.752, 162.2360
87.500000, 80.695, 161.9859
88.500000, 80.637, 161.8743
90.000000, 80.552, 161.7348
91.199997, 80.486, 161.5714
92.500000, 80.415, 161.5432
93.800003, 80.343, 161.4959
95.000000, 80.278, 161.3911
96.199997, 80.220, 161.2827
97.500000, 80.158, 161.1714
98.800003, 80.086, 161.0694
100.000000, 80.008, 160.9753
101.500000, 79.916, 160.8812
103.000000, 79.839, 160.7685
104.400002, 79.744, 160.6846
106.000000, 79.614, 160.5034
107.500000, 79.557, 160.5015
109.000000, 79.512, 160.5536
110.599998, 79.423, 160.5461
112.000000, 79.349, 160.5793
113.800003, 79.271, 160.5337
115.000000, 79.212, 160.4722
117.199997, 79.067, 160.5318
118.000000, 79.010, 160.5565
120.599998, 78.855, 160.5759
122.000000, 78.795, 160.7019
124.099998, 78.690, 160.8043
125.000000, 78.646, 160.8152
126.500000, 78.571, 160.9185
128.000000, 78.491, 161.0627
131.500000, 78.288, 161.3348
132.000000, 78.258, 161.3905
134.000000, 78.137, 161.6218
136.000000, 78.019, 161.7179
138.000000, 77.922, 161.9099
140.000000, 77.832, 162.2014
143.000000, 77.692, 162.4742
145.000000, 77.570, 162.7442
147.500000, 77.418, 163.1395
150.000000, 77.281, 163.4736
152.500000, 77.143, 163.8788
155.000000, 77.005, 164.3336
157.500000, 76.847, 164.8106
160.000000, 76.682, 165.4368
162.500000, 76.517, 166.2388
165.000000, 76.337, 167.3318
167.500000, 76.180, 168.8112
170.000000, 76.105, 170.4373
172.500000, 76.144, 172.1103
175.000000, 76.253, 173.4221
177.500000, 76.370, 174.0118
180.000000, 76.440, 174.0403
182.500000, 76.455, 173.8840
185.000000, 76.429, 173.7952
187.500000, 76.379, 173.8417
190.000000, 76.311, 174.0138
192.500000, 76.235, 174.1972
195.000000, 76.156, 174.4089
197.500000, 76.074, 174.7295
200.000000, 76.000, 175.1515
203.000000, 75.917, 175.6227
206.000000, 75.835, 176.1711
209.000000, 75.757, 176.8005
212.000000, 75.682, 177.4531
214.000000, 75.633, 177.8924
218.000000, 75.538, 178.7918
220.000000, 75.496, 179.2201
224.000000, 75.405, -179.9505
227.000000, 75.343, -179.3368
230.000000, 75.294, -178.7276
233.000000, 75.246, -178.0287
236.000000, 75.195, -177.2849
240.000000, 75.133, -176.2769
243.000000, 75.095, -175.5893
247.000000, 75.043, -174.6728
250.000000, 75.011, -173.9326
254.000000, 74.982, -172.8701
258.000000, 74.960, -171.8431
262.000000, 74.953, -170.8809
265.000000, 74.954, -170.2318
269.000000, 74.960, -169.4354
272.000000, 74.966, -168.8961
276.000000, 74.974, -168.2220
280.000000, 74.978, -167.5826
285.000000, 74.978, -166.8194
290.000000, 74.960, -165.9459
295.000000, 74.942, -165.0820
300.000000, 74.931, -164.3012
304.000000, 74.920, -163.6851
307.000000, 74.912, -163.1849
311.000000, 74.907, -162.5054
315.000000, 74.910, -161.8488
320.000000, 74.921, -161.0497
325.000000, 74.926, -160.2856
330.000000, 74.932, -159.5417
335.000000, 74.938, -158.8425
340.000000, 74.947, -158.1958
345.000000, 74.959, -157.5757
350.000000, 74.977, -156.9611
355.000000, 74.988, -156.3777
360.000000, 74.999, -155.7801
365.000000, 75.009, -155.1948
370.000000, 75.023, -154.6949
375.000000, 75.034, -154.2133
382.000000, 75.048, -153.5682
387.000000, 75.052, -153.1431
395.000000, 75.031, -152.4684
400.000000, 75.017, -152.0035
406.000000, 75.003, -151.4162
412.000000, 74.991, -150.8346
418.000000, 74.978, -150.2448
425.000000, 74.958, -149.4967
431.000000, 74.942, -148.9150
437.000000, 74.928, -148.3630
444.000000, 74.907, -147.7071
450.000000, 74.894, -147.1085
455.000000, 74.883, -146.6075
462.000000, 74.863, -145.9399
468.000000, 74.842, -145.3683
475.000000, 74.821, -144.6602
482.000000, 74.803, -143.9641
487.000000, 74.793, -143.4698
494.000000, 74.781, -142.7434
500.000000, 74.771, -142.1302
508.000000, 74.758, -141.3359
515.000000, 74.746, -140.6176
522.000000, 74.734, -139.9429
530.000000, 74.722, -139.2152
538.000000, 74.705, -138.5077
545.000000, 74.692, -137.8859
552.000000, 74.674, -137.2197
560.000000, 74.651, -136.4805
570.000000, 74.630, -135.5814
580.000000, 74.607, -134.6320
590.000000, 74.578, -133.7265
600.000000, 74.551, -132.7977
608.000000, 74.524, -132.0347
615.000000, 74.500, -131.3766
622.000000, 74.478, -130.7245
630.000000, 74.457, -129.9512
640.000000, 74.430, -128.9888
650.000000, 74.396, -127.9934
660.000000, 74.364, -127.0144
670.000000, 74.334, -126.0554
680.000000, 74.300, -125.0721
690.000000, 74.265, -124.0514
700.000000, 74.236, -123.0329
710.000000, 74.213, -122.0056
720.000000, 74.192, -120.9576
730.000000, 74.174, -119.9118
740.000000, 74.147, -118.8597
750.000000, 74.120, -117.7895
762.000000, 74.093, -116.5086
775.000000, 74.063, -115.0778
788.000000, 74.040, -113.6497
800.000000, 74.022, -112.3602
812.000000, 74.007, -111.0118
825.000000, 73.999, -109.4931
838.000000, 74.001, -107.9647
850.000000, 74.005, -106.6286
862.000000, 74.008, -105.2480
875.000000, 74.014, -103.7123
885.000000, 74.026, -102.5807
900.000000, 74.054, -100.8753
912.000000, 74.077, -99.5104
925.000000, 74.100, -98.0274
938.000000, 74.134, -96.5376
950.000000, 74.170, -95.1904
962.000000, 74.210, -93.8615
975.000000, 74.262, -92.4562
988.000000, 74.324, -91.1172
1000.000000, 74.383, -89.8883
1015.000000, 74.456, -88.2719
1030.000000, 74.533, -86.7060
1044.000000, 74.613, -85.2799
1060.000000, 74.711, -83.7346
1075.000000, 74.807, -82.3599
1090.000000, 74.911, -80.9981
1106.000000, 75.022, -79.5949
1120.000000, 75.120, -78.4338
1138.000000, 75.254, -76.9653
1150.000000, 75.342, -76.0419
1172.000000, 75.502, -74.4804
1180.000000, 75.561, -73.9584
1206.000000, 75.750, -72.3615
1220.000000, 75.846, -71.5854
1241.000000, 75.975, -70.4731
1250.000000, 76.025, -70.0099
1265.000000, 76.102, -69.2497
1280.000000, 76.172, -68.4969
1315.000000, 76.316, -66.7650
1320.000000, 76.334, -66.5049
1340.000000, 76.405, -65.4325
1360.000000, 76.474, -64.3484
1380.000000, 76.546, -63.2430
1400.000000, 76.615, -62.1192
1430.000000, 76.713, -60.4451
1450.000000, 76.781, -59.2940
1475.000000, 76.865, -57.8437
1500.000000, 76.952, -56.3948
1525.000000, 77.044, -54.9420
1550.000000, 77.144, -53.4604
1575.000000, 77.248, -52.0140
1600.000000, 77.358, -50.6038
1625.000000, 77.471, -49.1976
1650.000000, 77.586, -47.8062
1675.000000, 77.709, -46.4332
1700.000000, 77.837, -45.1102
1725.000000, 77.969, -43.8140
1750.000000, 78.106, -42.5543
1775.000000, 78.247, -41.3818
1800.000000, 78.395, -40.2471
1825.000000, 78.545, -39.1667
1850.000000, 78.696, -38.1446
1875.000000, 78.849, -37.1629
1900.000000, 79.000, -36.2327
1925.000000, 79.152, -35.3777
1950.000000, 79.305, -34.5960
1975.000000, 79.454, -33.8882
2000.000000, 79.601, -33.2251
2030.000000, 79.771, -32.5113
2060.000000, 79.937, -31.8939
2090.000000, 80.095, -31.3330
2120.000000, 80.243, -30.8275
2140.000000, 80.336, -30.5243
2180.000000, 80.511, -29.9732
2200.000000, 80.592, -29.7143
2240.000000, 80.745, -29.2326
2270.000000, 80.850, -28.8900
2300.000000, 80.950, -28.5573
2330.000000, 81.045, -28.2308
2360.000000, 81.137, -27.9163
2400.000000, 81.248, -27.5060
2430.000000, 81.330, -27.2046
2470.000000, 81.441, -26.8210
2500.000000, 81.523, -26.5594
2540.000000, 81.635, -26.2603
2580.000000, 81.747, -26.0356
2620.000000, 81.861, -25.8950
2650.000000, 81.946, -25.8725
2690.000000, 82.056, -25.9564
2720.000000, 82.134, -26.1199
2760.000000, 82.229, -26.4929
2800.000000, 82.310, -27.0577
2850.000000, 82.376, -28.0418
2900.000000, 82.387, -29.3169
2950.000000, 82.320, -30.8409
3000.000000, 82.150, -32.4509
3040.000000, 81.931, -33.5879
3070.000000, 81.720, -34.2334
3110.000000, 81.384, -34.6961
3150.000000, 81.010, -34.5948
3200.000000, 80.544, -33.5860
3250.000000, 80.141, -31.7074
3300.000000, 79.839, -29.2808
3350.000000, 79.649, -26.6729
3400.000000, 79.558, -24.1869
3450.000000, 79.537, -21.9849
3500.000000, 79.551, -20.1435
3550.000000, 79.580, -18.6360
3600.000000, 79.609, -17.3802
3650.000000, 79.630, -16.3020
3700.000000, 79.641, -15.3084
3750.000000, 79.650, -14.3587
3820.000000, 79.660, -13.1343
3870.000000, 79.669, -12.3230
3950.000000, 79.698, -11.1425
4000.000000, 79.726, -10.5248
4060.000000, 79.763, -9.9164
4120.000000, 79.801, -9.4963
4180.000000, 79.835, -9.3347
4250.000000, 79.853, -9.4373
4310.000000, 79.838, -9.7371
4370.000000, 79.790, -10.1662
4440.000000, 79.692, -10.7565
4500.000000, 79.566, -11.2768
4550.000000, 79.436, -11.6722
4620.000000, 79.225, -12.0968
4680.000000, 79.025, -12.3320
4750.000000, 78.779, -12.4975
4820.000000, 78.528, -12.5824
4870.000000, 78.343, -12.6004
4940.000000, 78.078, -12.5834
5000.000000, 77.845, -12.5452
5080.000000, 77.514, -12.4588
5150.000000, 77.202, -12.3102
5220.000000, 76.865, -12.0004
5300.000000, 76.468, -11.4108
5380.000000, 76.065, -10.5692
5450.000000, 75.718, -9.5684
5520.000000, 75.383, -8.3518
5600.000000, 75.024, -6.7866
5700.000000, 74.624, -4.6045
5800.000000, 74.276, -2.2804
5900.000000, 73.973, 0.1335
6000.000000, 73.723, 2.6103
6080.000000, 73.568, 4.6151
6150.000000, 73.461, 6.3715
6220.000000, 73.384, 8.1141
6300.000000, 73.332, 10.0598
6400.000000, 73.319, 12.3897
6500.000000, 73.371, 14.5674
6600.000000, 73.489, 16.6041
6700.000000, 73.669, 18.4188
6800.000000, 73.909, 19.9203
6900.000000, 74.209, 21.0877
7000.000000, 74.559, 21.8830
7100.000000, 74.962, 22.3074
7200.000000, 75.429, 22.3275
7300.000000, 75.967, 21.7937
7400.000000, 76.553, 20.5173
7500.000000, 77.164, 18.4158
7620.000000, 77.903, 14.6941
7750.000000, 78.652, 8.9827
7880.000000, 79.237, 1.5696
8000.000000, 79.538, -6.4094
8120.000000, 79.549, -14.8879
8250.000000, 79.224, -23.7578
8380.000000, 78.611, -31.5037
8500.000000, 77.873, -37.3119
8620.000000, 77.031, -41.7519
8750.000000, 76.049, -44.6835
8850.000000, 75.350, -45.5596
9000.000000, 74.473, -46.0439
9120.000000, 73.846, -46.0170
9250.000000, 73.222, -45.4811
9380.000000, 72.664, -44.4826
9500.000000, 72.210, -43.2958
9620.000000, 71.796, -41.9222
9750.000000, 71.385, -40.2968
9880.000000, 71.010, -38.4680
10000.000000, 70.698, -36.5980
10150.000000, 70.338, -34.0718
10300.000000, 70.005, -31.2667
10440.000000, 69.736, -28.4117
10600.000000, 69.483, -25.0219
10750.000000, 69.275, -21.6814
10900.000000, 69.100, -18.1773
11060.000000, 68.959, -14.2867
11200.000000, 68.875, -10.7698
11380.000000, 68.815, -6.1903
11500.000000, 68.804, -3.1019
11720.000000, 68.860, 2.7021
11800.000000, 68.906, 4.8048
12060.000000, 69.126, 11.2999
12200.000000, 69.280, 14.6562
12410.000000, 69.560, 19.7295
12500.000000, 69.713, 21.9390
12650.000000, 70.028, 25.5190
12800.000000, 70.416, 28.6944
13150.000000, 71.468, 33.7961
13200.000000, 71.620, 34.2607
13400.000000, 72.208, 35.5224
13600.000000, 72.743, 35.9343
13800.000000, 73.208, 35.5402
14000.000000, 73.586, 34.5323
14300.000000, 73.969, 32.3126
14500.000000, 74.123, 30.6282
14750.000000, 74.233, 28.3497
15000.000000, 74.251, 25.7897
15250.000000, 74.149, 23.1415
15500.000000, 73.987, 21.2583
15750.000000, 74.085, 19.5651
16000.000000, 74.347, 14.6696
16250.000000, 74.218, 6.6836
16500.000000, 73.506, -1.9003
16750.000000, 72.278, -9.0923
17000.000000, 70.743, -13.9698
17250.000000, 69.097, -16.7739
17500.000000, 67.387, -17.8657
17750.000000, 65.636, -17.2603
18000.000000, 63.875, -15.1269
18250.000000, 62.116, -11.3957
18500.000000, 60.415, -5.7463
18750.000000, 58.940, 1.7750
19000.000000, 57.858, 9.2703
19250.000000, 57.001, 14.0708
19500.000000, 55.972, 16.5578
19750.000000, 54.723, 19.0153
20000.000000, 53.824, 21.7607
