* Measurement data measured by REW V5.31.3
* Source: Input device not selected, no input selected, L, volume: no control
* Format: 256k Log Swept Sine, 1 sweep at -12.0 dBFS with no timing reference
* Dated: Sep 9, 2024 6:17:12 PM
* REW Settings:
*  C-weighting compensation: Off
*  Target level: 75.0 dB
* Note: ; 
* Measurement: Davinci (Final E M) L
* Smoothing: 1/24 octave
* Frequency Step: 1/48 octave
* Start Frequency: 20.300 Hz
*
* Freq(Hz), SPL(dB), Phase(degrees)
20.299999, 83.101, -172.7006
20.600000, 83.097, -173.0571
20.900000, 83.093, -173.4538
21.200001, 83.091, -173.8589
21.400000, 83.090, -174.1278
21.799999, 83.090, -174.6451
22.000000, 83.089, -174.8848
22.400000, 83.084, -175.3140
22.700001, 83.078, -175.5955
23.000000, 83.073, -175.8590
23.299999, 83.068, -176.1269
23.600000, 83.065, -176.4187
24.000000, 83.064, -176.8569
24.299999, 83.065, -177.2119
24.700001, 83.067, -177.6871
25.000000, 83.069, -178.0252
25.400000, 83.074, -178.4417
25.799999, 83.076, -178.8277
26.200001, 83.070, -179.1938
26.500000, 83.059, -179.4546
26.900000, 83.039, -179.7784
27.200001, 83.025, 179.9930
27.600000, 83.015, 179.6846
28.000000, 83.014, 179.3417
28.500000, 83.012, 178.8601
29.000000, 82.992, 178.4019
29.500000, 82.959, 178.0706
30.000000, 82.934, 177.8495
30.400000, 82.933, 177.6554
30.700001, 82.941, 177.4495
31.100000, 82.957, 177.0817
31.500000, 82.967, 176.6509
32.000000, 82.964, 176.1424
32.500000, 82.948, 175.7532
33.000000, 82.928, 175.4620
33.500000, 82.908, 175.1824
34.000000, 82.888, 174.8587
34.500000, 82.870, 174.4940
35.000000, 82.856, 174.1171
35.500000, 82.845, 173.7458
36.000000, 82.834, 173.3844
36.500000, 82.818, 173.0361
37.000000, 82.799, 172.7076
37.500000, 82.781, 172.4003
38.200001, 82.764, 171.9826
38.700001, 82.754, 171.6720
39.500000, 82.727, 171.1664
40.000000, 82.703, 170.8735
40.599998, 82.679, 170.5434
41.200001, 82.664, 170.1978
41.799999, 82.649, 169.8297
42.500000, 82.621, 169.4340
43.099998, 82.594, 169.1428
43.700001, 82.573, 168.8404
44.400002, 82.553, 168.4274
45.000000, 82.533, 168.0755
45.500000, 82.514, 167.8257
46.200001, 82.491, 167.5222
46.799999, 82.472, 167.2518
47.500000, 82.446, 166.9167
48.200001, 82.416, 166.5940
48.700001, 82.394, 166.3632
49.400002, 82.359, 166.0156
50.000000, 82.326, 165.7073
50.799999, 82.288, 165.3213
51.500000, 82.267, 165.0015
52.200001, 82.248, 164.6894
53.000000, 82.220, 164.3589
53.799999, 82.186, 164.0500
54.500000, 82.153, 163.7771
55.200001, 82.119, 163.4897
56.000000, 82.082, 163.1403
57.000000, 82.043, 162.7209
58.000000, 82.009, 162.3434
59.000000, 81.955, 161.9636
60.000000, 81.890, 161.5985
60.799999, 81.854, 161.2900
61.500000, 81.830, 161.0017
62.200001, 81.806, 160.7192
63.000000, 81.772, 160.4182
64.000000, 81.724, 160.0782
65.000000, 81.681, 159.7455
66.000000, 81.635, 159.3970
67.000000, 81.585, 159.0725
68.000000, 81.538, 158.7543
69.000000, 81.491, 158.4383
70.000000, 81.450, 158.1042
71.000000, 81.408, 157.7431
72.000000, 81.358, 157.4382
73.000000, 81.307, 157.1827
74.000000, 81.257, 156.9220
75.000000, 81.207, 156.6703
76.199997, 81.146, 156.3515
77.500000, 81.075, 156.0025
78.800003, 81.011, 155.6613
80.000000, 80.951, 155.3570
81.199997, 80.890, 155.0908
82.500000, 80.824, 154.8033
83.800003, 80.756, 154.5147
85.000000, 80.696, 154.2862
86.199997, 80.636, 154.0575
87.500000, 80.565, 153.7618
88.500000, 80.512, 153.5316
90.000000, 80.438, 153.2278
91.199997, 80.377, 153.0216
92.500000, 80.313, 152.8012
93.800003, 80.247, 152.5825
95.000000, 80.180, 152.3666
96.199997, 80.113, 152.1408
97.500000, 80.044, 151.9358
98.800003, 79.974, 151.7733
100.000000, 79.911, 151.6152
101.500000, 79.835, 151.3989
103.000000, 79.759, 151.2097
104.400002, 79.685, 151.0458
106.000000, 79.597, 150.8452
107.500000, 79.515, 150.6832
109.000000, 79.438, 150.5449
110.599998, 79.358, 150.3793
112.000000, 79.283, 150.2601
113.800003, 79.188, 150.1111
115.000000, 79.125, 150.0170
117.199997, 79.004, 149.8849
118.000000, 78.961, 149.8238
120.599998, 78.824, 149.6785
122.000000, 78.751, 149.6467
124.099998, 78.642, 149.5867
125.000000, 78.594, 149.5625
126.500000, 78.515, 149.5451
128.000000, 78.436, 149.5395
131.500000, 78.258, 149.5113
132.000000, 78.233, 149.5128
134.000000, 78.134, 149.5221
136.000000, 78.034, 149.5844
138.000000, 77.930, 149.6591
140.000000, 77.828, 149.7294
143.000000, 77.674, 149.8395
145.000000, 77.573, 149.8986
147.500000, 77.446, 150.0983
150.000000, 77.322, 150.3745
152.500000, 77.198, 150.7112
155.000000, 77.073, 151.1154
157.500000, 76.962, 151.5737
160.000000, 76.871, 152.0936
162.500000, 76.795, 152.6110
165.000000, 76.734, 153.0772
167.500000, 76.684, 153.4243
170.000000, 76.636, 153.7236
172.500000, 76.583, 153.9655
175.000000, 76.523, 154.1427
177.500000, 76.460, 154.3492
180.000000, 76.395, 154.6036
182.500000, 76.325, 154.8573
185.000000, 76.251, 155.0909
187.500000, 76.176, 155.3437
190.000000, 76.102, 155.6261
192.500000, 76.027, 155.9336
195.000000, 75.951, 156.2954
197.500000, 75.880, 156.6982
200.000000, 75.814, 157.1465
203.000000, 75.743, 157.7119
206.000000, 75.684, 158.2855
209.000000, 75.642, 158.8165
212.000000, 75.607, 159.2629
214.000000, 75.583, 159.5472
218.000000, 75.526, 160.0644
220.000000, 75.497, 160.3148
224.000000, 75.442, 160.8240
227.000000, 75.399, 161.2187
230.000000, 75.357, 161.6105
233.000000, 75.319, 161.9945
236.000000, 75.282, 162.4153
240.000000, 75.235, 162.9672
243.000000, 75.203, 163.3684
247.000000, 75.166, 163.9577
250.000000, 75.143, 164.3846
254.000000, 75.113, 164.9157
258.000000, 75.089, 165.4216
262.000000, 75.067, 165.9274
265.000000, 75.051, 166.2989
269.000000, 75.034, 166.8035
272.000000, 75.022, 167.2006
276.000000, 75.005, 167.6798
280.000000, 74.994, 168.1221
285.000000, 74.982, 168.6794
290.000000, 74.973, 169.2030
295.000000, 74.967, 169.7351
300.000000, 74.964, 170.2351
304.000000, 74.962, 170.5917
307.000000, 74.960, 170.8318
311.000000, 74.955, 171.1667
315.000000, 74.953, 171.5255
320.000000, 74.952, 171.9435
325.000000, 74.950, 172.3190
330.000000, 74.951, 172.6753
335.000000, 74.952, 173.0710
340.000000, 74.958, 173.4315
345.000000, 74.964, 173.7468
350.000000, 74.971, 174.0788
355.000000, 74.983, 174.4156
360.000000, 74.997, 174.7074
365.000000, 75.008, 174.9632
370.000000, 75.014, 175.2118
375.000000, 75.020, 175.4590
382.000000, 75.027, 175.7691
387.000000, 75.028, 175.9679
395.000000, 75.027, 176.2577
400.000000, 75.026, 176.4353
406.000000, 75.019, 176.6613
412.000000, 75.017, 176.8976
418.000000, 75.019, 177.0899
425.000000, 75.019, 177.3021
431.000000, 75.017, 177.5063
437.000000, 75.011, 177.6966
444.000000, 74.997, 177.8743
450.000000, 74.984, 178.0465
455.000000, 74.973, 178.2030
462.000000, 74.953, 178.4481
468.000000, 74.936, 178.6630
475.000000, 74.921, 178.9060
482.000000, 74.909, 179.1512
487.000000, 74.901, 179.3440
494.000000, 74.887, 179.6484
500.000000, 74.875, 179.8844
508.000000, 74.863, -179.8352
515.000000, 74.854, -179.5944
522.000000, 74.846, -179.3578
530.000000, 74.834, -179.0899
538.000000, 74.823, -178.8313
545.000000, 74.813, -178.6025
552.000000, 74.801, -178.3650
560.000000, 74.781, -178.1066
570.000000, 74.757, -177.7813
580.000000, 74.730, -177.4725
590.000000, 74.705, -177.1262
600.000000, 74.677, -176.7587
608.000000, 74.650, -176.5008
615.000000, 74.629, -176.2635
622.000000, 74.608, -176.0171
630.000000, 74.583, -175.7249
640.000000, 74.555, -175.3092
650.000000, 74.525, -174.8733
660.000000, 74.491, -174.4659
670.000000, 74.464, -174.0425
680.000000, 74.438, -173.5711
690.000000, 74.410, -173.1160
700.000000, 74.385, -172.6473
710.000000, 74.358, -172.1391
720.000000, 74.334, -171.6176
730.000000, 74.310, -171.1208
740.000000, 74.285, -170.6173
750.000000, 74.260, -170.0795
762.000000, 74.237, -169.3977
775.000000, 74.212, -168.6572
788.000000, 74.190, -167.8923
800.000000, 74.176, -167.1986
812.000000, 74.169, -166.4528
825.000000, 74.165, -165.6102
838.000000, 74.164, -164.8011
850.000000, 74.166, -164.0579
862.000000, 74.173, -163.2773
875.000000, 74.182, -162.4272
885.000000, 74.192, -161.7787
900.000000, 74.220, -160.7897
912.000000, 74.247, -160.0232
925.000000, 74.284, -159.1948
938.000000, 74.324, -158.3289
950.000000, 74.363, -157.5233
962.000000, 74.406, -156.7487
975.000000, 74.461, -155.9539
988.000000, 74.525, -155.1501
1000.000000, 74.584, -154.4062
1015.000000, 74.659, -153.6022
1030.000000, 74.747, -152.8139
1044.000000, 74.833, -152.0545
1060.000000, 74.936, -151.2133
1075.000000, 75.037, -150.5064
1090.000000, 75.146, -149.8455
1106.000000, 75.263, -149.1786
1120.000000, 75.368, -148.6369
1138.000000, 75.509, -148.0338
1150.000000, 75.603, -147.6741
1172.000000, 75.775, -147.1108
1180.000000, 75.838, -146.9324
1206.000000, 76.036, -146.4879
1220.000000, 76.136, -146.3360
1241.000000, 76.274, -146.1792
1250.000000, 76.327, -146.1201
1265.000000, 76.412, -146.0107
1280.000000, 76.492, -145.8997
1315.000000, 76.655, -145.6327
1320.000000, 76.676, -145.5948
1340.000000, 76.759, -145.4215
1360.000000, 76.838, -145.2343
1380.000000, 76.915, -145.0134
1400.000000, 76.990, -144.7552
1430.000000, 77.106, -144.3630
1450.000000, 77.181, -144.1025
1475.000000, 77.275, -143.7346
1500.000000, 77.373, -143.3301
1525.000000, 77.476, -142.9212
1550.000000, 77.585, -142.5186
1575.000000, 77.695, -142.1095
1600.000000, 77.811, -141.7280
1625.000000, 77.933, -141.3694
1650.000000, 78.059, -141.0032
1675.000000, 78.189, -140.6553
1700.000000, 78.323, -140.3133
1725.000000, 78.463, -140.0033
1750.000000, 78.608, -139.7475
1775.000000, 78.759, -139.5216
1800.000000, 78.913, -139.3489
1825.000000, 79.070, -139.2487
1850.000000, 79.228, -139.1846
1875.000000, 79.388, -139.1556
1900.000000, 79.549, -139.1833
1925.000000, 79.712, -139.2751
1950.000000, 79.874, -139.4332
1975.000000, 80.033, -139.6402
2000.000000, 80.188, -139.9006
2030.000000, 80.370, -140.3033
2060.000000, 80.547, -140.7853
2090.000000, 80.716, -141.3218
2120.000000, 80.876, -141.9021
2140.000000, 80.978, -142.3227
2180.000000, 81.173, -143.2094
2200.000000, 81.264, -143.6752
2240.000000, 81.433, -144.6501
2270.000000, 81.552, -145.4020
2300.000000, 81.664, -146.1570
2330.000000, 81.769, -146.9122
2360.000000, 81.869, -147.6680
2400.000000, 81.995, -148.6895
2430.000000, 82.087, -149.4599
2470.000000, 82.204, -150.4844
2500.000000, 82.290, -151.2733
2540.000000, 82.404, -152.3556
2580.000000, 82.520, -153.4790
2620.000000, 82.636, -154.6701
2650.000000, 82.723, -155.6083
2690.000000, 82.838, -156.9405
2720.000000, 82.923, -158.0195
2760.000000, 83.030, -159.5939
2800.000000, 83.127, -161.3587
2850.000000, 83.222, -163.8761
2900.000000, 83.256, -166.7307
2950.000000, 83.200, -169.7893
3000.000000, 83.033, -172.8164
3040.000000, 82.817, -174.9866
3070.000000, 82.617, -176.3479
3110.000000, 82.317, -177.7051
3150.000000, 82.009, -178.4829
3200.000000, 81.662, -178.7489
3250.000000, 81.394, -178.5107
3300.000000, 81.215, -178.0599
3350.000000, 81.109, -177.6393
3400.000000, 81.053, -177.3937
3450.000000, 81.028, -177.3367
3500.000000, 81.020, -177.4669
3550.000000, 81.021, -177.7667
3600.000000, 81.024, -178.2034
3650.000000, 81.021, -178.7471
3700.000000, 81.008, -179.3525
3750.000000, 80.987, -179.9697
3820.000000, 80.964, 179.2071
3870.000000, 80.959, 178.6201
3950.000000, 80.982, 177.5490
4000.000000, 81.014, 176.7192
4060.000000, 81.060, 175.5183
4120.000000, 81.102, 174.0365
4180.000000, 81.125, 172.2480
4250.000000, 81.104, 169.8561
4310.000000, 81.034, 167.6568
4370.000000, 80.916, 165.4175
4440.000000, 80.720, 162.8781
4500.000000, 80.511, 160.8455
4550.000000, 80.312, 159.2759
4620.000000, 80.009, 157.3064
4680.000000, 79.737, 155.8353
4750.000000, 79.420, 154.2998
4820.000000, 79.106, 152.9209
4870.000000, 78.883, 152.0180
4940.000000, 78.573, 150.8628
5000.000000, 78.307, 149.9531
5080.000000, 77.952, 148.8035
5150.000000, 77.634, 147.8570
5220.000000, 77.301, 147.0137
5300.000000, 76.915, 146.2192
5380.000000, 76.531, 145.6691
5450.000000, 76.200, 145.4135
5520.000000, 75.883, 145.3341
5600.000000, 75.546, 145.4100
5700.000000, 75.169, 145.7137
5800.000000, 74.842, 146.1223
5900.000000, 74.562, 146.6211
6000.000000, 74.338, 147.1800
6080.000000, 74.203, 147.6472
6150.000000, 74.117, 148.0471
6220.000000, 74.059, 148.3638
6300.000000, 74.023, 148.6188
6400.000000, 74.023, 148.8000
6500.000000, 74.064, 148.7620
6600.000000, 74.156, 148.4428
6700.000000, 74.295, 147.8509
6800.000000, 74.468, 146.9339
6900.000000, 74.663, 145.6464
7000.000000, 74.874, 143.9855
7100.000000, 75.092, 141.9038
7200.000000, 75.306, 139.4380
7300.000000, 75.502, 136.6314
7400.000000, 75.681, 133.5244
7500.000000, 75.830, 130.0460
7620.000000, 75.932, 125.5294
7750.000000, 75.928, 120.5438
7880.000000, 75.812, 115.7939
8000.000000, 75.642, 111.8831
8120.000000, 75.447, 108.4344
8250.000000, 75.216, 105.2183
8380.000000, 74.979, 102.4834
8500.000000, 74.769, 100.3217
8620.000000, 74.551, 98.4680
8750.000000, 74.293, 97.2854
8850.000000, 74.164, 97.2224
9000.000000, 74.157, 97.1367
9120.000000, 74.211, 96.8128
9250.000000, 74.300, 96.5094
9380.000000, 74.436, 96.2433
9500.000000, 74.610, 96.0180
9620.000000, 74.832, 95.6973
9750.000000, 75.117, 95.1077
9880.000000, 75.432, 94.2424
10000.000000, 75.741, 93.1628
10150.000000, 76.131, 91.3746
10300.000000, 76.498, 89.1559
10440.000000, 76.808, 86.7756
10600.000000, 77.119, 83.6902
10750.000000, 77.341, 80.4764
10900.000000, 77.483, 77.1549
11060.000000, 77.550, 73.6602
11200.000000, 77.548, 70.7356
11380.000000, 77.481, 67.2356
11500.000000, 77.401, 65.0807
11720.000000, 77.205, 61.4739
11800.000000, 77.121, 60.2505
12060.000000, 76.800, 56.5306
12200.000000, 76.596, 54.7070
12410.000000, 76.250, 52.2641
12500.000000, 76.097, 51.3580
12650.000000, 75.855, 50.0004
12800.000000, 75.640, 48.6259
13150.000000, 75.119, 44.1888
13200.000000, 75.024, 43.4265
13400.000000, 74.563, 40.2644
13600.000000, 73.975, 37.1780
13800.000000, 73.273, 34.3630
14000.000000, 72.479, 31.9073
14300.000000, 71.152, 28.9643
14500.000000, 70.183, 27.4632
14750.000000, 68.871, 26.0117
15000.000000, 67.413, 25.1270
15250.000000, 65.698, 25.2964
15500.000000, 63.703, 29.0295
15750.000000, 61.987, 38.8431
16000.000000, 61.155, 48.0439
16250.000000, 60.515, 53.6172
16500.000000, 59.733, 59.0710
16750.000000, 58.938, 65.4161
17000.000000, 58.276, 71.8339
17250.000000, 57.719, 77.6876
17500.000000, 57.175, 83.4530
17750.000000, 56.606, 89.5177
18000.000000, 56.052, 96.3888
18250.000000, 55.601, 103.8193
18500.000000, 55.347, 111.4649
18750.000000, 55.422, 119.3685
19000.000000, 55.967, 125.4618
19250.000000, 56.802, 126.7317
19500.000000, 57.529, 122.5580
19750.000000, 57.902, 113.4853
20000.000000, 57.954, 102.8816
