* Measurement data measured by REW V5.31.3
* Source: Input device not selected, no input selected, L, volume: no control
* Format: 256k Log Swept Sine, 1 sweep at -12.0 dBFS with no timing reference
* Dated: Sep 10, 2024 11:59:18 AM
* REW Settings:
*  C-weighting compensation: Off
*  Target level: 75.0 dB
* Note: ; 
* Measurement: Davinci (Black N5005 M) L
* Smoothing: 1/24 octave
* Frequency Step: 1/48 octave
* Start Frequency: 20.300 Hz
*
* Freq(Hz), SPL(dB), Phase(degrees)
20.299999, 83.015, -174.8557
20.600000, 83.003, -175.2995
20.900000, 82.988, -175.7218
21.200001, 82.977, -176.0713
21.400000, 82.977, -176.2711
21.799999, 82.992, -176.6431
22.000000, 83.006, -176.8408
22.400000, 83.037, -177.2981
22.700001, 83.054, -177.6913
23.000000, 83.059, -178.0979
23.299999, 83.052, -178.4812
23.600000, 83.035, -178.8127
24.000000, 83.008, -179.1655
24.299999, 82.993, -179.3908
24.700001, 82.985, -179.7126
25.000000, 82.987, 179.9834
25.400000, 82.992, 179.4654
25.799999, 82.992, 178.8505
26.200001, 82.982, 178.2260
26.500000, 82.969, 177.8105
26.900000, 82.951, 177.3773
27.200001, 82.942, 177.1446
27.600000, 82.940, 176.9124
28.000000, 82.947, 176.6895
28.500000, 82.958, 176.3135
29.000000, 82.955, 175.7933
29.500000, 82.937, 175.1908
30.000000, 82.913, 174.6012
30.400000, 82.897, 174.1855
30.700001, 82.890, 173.9186
31.100000, 82.886, 173.6257
31.500000, 82.887, 173.3950
32.000000, 82.894, 173.1417
32.500000, 82.901, 172.8259
33.000000, 82.898, 172.3557
33.500000, 82.876, 171.7435
34.000000, 82.832, 171.1203
34.500000, 82.784, 170.6382
35.000000, 82.754, 170.3467
35.500000, 82.748, 170.1669
36.000000, 82.752, 169.9870
36.500000, 82.748, 169.7593
37.000000, 82.727, 169.4933
37.500000, 82.701, 169.1901
38.200001, 82.670, 168.6574
38.700001, 82.652, 168.2183
39.500000, 82.621, 167.6028
40.000000, 82.608, 167.3134
40.599998, 82.601, 166.9559
41.200001, 82.594, 166.4841
41.799999, 82.576, 165.9407
42.500000, 82.543, 165.3947
43.099998, 82.516, 165.0783
43.700001, 82.492, 164.8628
44.400002, 82.464, 164.6390
45.000000, 82.443, 164.3900
45.500000, 82.431, 164.0949
46.200001, 82.409, 163.5368
46.799999, 82.374, 163.0279
47.500000, 82.316, 162.5876
48.200001, 82.272, 162.2939
48.700001, 82.254, 162.0511
49.400002, 82.232, 161.6099
50.000000, 82.212, 161.2388
50.799999, 82.199, 160.8377
51.500000, 82.191, 160.4843
52.200001, 82.158, 160.1223
53.000000, 82.107, 159.7212
53.799999, 82.070, 159.2405
54.500000, 82.050, 158.8285
55.200001, 82.041, 158.5561
56.000000, 82.028, 158.3130
57.000000, 81.975, 157.8958
58.000000, 81.924, 157.3967
59.000000, 81.900, 156.8195
60.000000, 81.838, 156.3907
60.799999, 81.782, 156.1812
61.500000, 81.753, 155.9257
62.200001, 81.730, 155.6069
63.000000, 81.695, 155.3252
64.000000, 81.652, 155.0710
65.000000, 81.621, 154.5822
66.000000, 81.565, 153.9732
67.000000, 81.481, 153.6916
68.000000, 81.435, 153.5408
69.000000, 81.414, 153.1038
70.000000, 81.364, 152.6522
71.000000, 81.305, 152.3746
72.000000, 81.269, 152.0619
73.000000, 81.242, 151.5853
74.000000, 81.185, 151.1450
75.000000, 81.115, 150.9558
76.199997, 81.062, 150.7594
77.500000, 81.026, 150.2475
78.800003, 80.960, 149.5194
80.000000, 80.861, 149.0410
81.199997, 80.783, 148.8564
82.500000, 80.738, 148.7320
83.800003, 80.691, 148.5096
85.000000, 80.635, 148.1028
86.199997, 80.559, 147.6182
87.500000, 80.475, 147.1974
88.500000, 80.423, 146.9543
90.000000, 80.355, 146.7251
91.199997, 80.299, 146.5178
92.500000, 80.232, 146.1642
93.800003, 80.160, 145.8378
95.000000, 80.103, 145.5709
96.199997, 80.041, 145.2913
97.500000, 79.965, 144.9899
98.800003, 79.898, 144.7250
100.000000, 79.843, 144.4848
101.500000, 79.765, 144.1948
103.000000, 79.687, 143.9723
104.400002, 79.618, 143.7565
106.000000, 79.533, 143.4727
107.500000, 79.453, 143.2606
109.000000, 79.380, 143.0724
110.599998, 79.301, 142.8380
112.000000, 79.227, 142.6062
113.800003, 79.124, 142.3657
115.000000, 79.058, 142.2341
117.199997, 78.952, 141.9896
118.000000, 78.913, 141.8896
120.599998, 78.784, 141.5397
122.000000, 78.712, 141.4753
124.099998, 78.600, 141.4106
125.000000, 78.552, 141.3484
126.500000, 78.478, 141.2203
128.000000, 78.410, 141.0973
131.500000, 78.248, 140.9287
132.000000, 78.223, 140.9049
134.000000, 78.124, 140.7561
136.000000, 78.025, 140.6598
138.000000, 77.920, 140.6206
140.000000, 77.821, 140.5744
143.000000, 77.697, 140.5799
145.000000, 77.610, 140.5958
147.500000, 77.496, 140.6263
150.000000, 77.381, 140.6702
152.500000, 77.275, 140.6996
155.000000, 77.174, 140.8092
157.500000, 77.077, 140.9242
160.000000, 76.982, 141.0383
162.500000, 76.888, 141.1295
165.000000, 76.791, 141.2543
167.500000, 76.698, 141.4370
170.000000, 76.610, 141.6380
172.500000, 76.527, 141.8470
175.000000, 76.448, 142.0492
177.500000, 76.366, 142.2696
180.000000, 76.278, 142.4711
182.500000, 76.195, 142.7062
185.000000, 76.122, 142.9232
187.500000, 76.052, 143.1525
190.000000, 75.979, 143.4051
192.500000, 75.914, 143.6714
195.000000, 75.855, 143.9346
197.500000, 75.798, 144.2491
200.000000, 75.740, 144.5440
203.000000, 75.672, 144.8606
206.000000, 75.607, 145.2151
209.000000, 75.541, 145.5938
212.000000, 75.481, 145.9467
214.000000, 75.448, 146.1692
218.000000, 75.390, 146.6288
220.000000, 75.359, 146.8365
224.000000, 75.303, 147.2679
227.000000, 75.265, 147.6631
230.000000, 75.224, 148.0229
233.000000, 75.182, 148.3560
236.000000, 75.150, 148.7073
240.000000, 75.122, 149.1487
243.000000, 75.101, 149.4763
247.000000, 75.068, 149.8979
250.000000, 75.045, 150.1658
254.000000, 75.022, 150.5566
258.000000, 75.004, 150.9739
262.000000, 74.987, 151.3178
265.000000, 74.975, 151.5469
269.000000, 74.961, 151.8912
272.000000, 74.954, 152.1517
276.000000, 74.950, 152.4610
280.000000, 74.945, 152.7796
285.000000, 74.936, 153.1612
290.000000, 74.929, 153.4680
295.000000, 74.927, 153.7530
300.000000, 74.930, 154.0266
304.000000, 74.930, 154.2766
307.000000, 74.931, 154.4282
311.000000, 74.937, 154.6008
315.000000, 74.942, 154.7728
320.000000, 74.942, 154.9658
325.000000, 74.944, 155.1568
330.000000, 74.952, 155.3403
335.000000, 74.960, 155.4969
340.000000, 74.964, 155.6229
345.000000, 74.967, 155.7398
350.000000, 74.973, 155.8372
355.000000, 74.985, 155.9757
360.000000, 74.994, 156.0992
365.000000, 74.995, 156.1389
370.000000, 74.997, 156.1729
375.000000, 75.005, 156.2503
382.000000, 75.013, 156.3436
387.000000, 75.016, 156.3741
395.000000, 75.018, 156.4051
400.000000, 75.018, 156.4285
406.000000, 75.013, 156.4236
412.000000, 75.008, 156.4205
418.000000, 75.008, 156.4318
425.000000, 75.006, 156.4547
431.000000, 75.002, 156.4564
437.000000, 74.991, 156.4353
444.000000, 74.977, 156.4491
450.000000, 74.965, 156.4811
455.000000, 74.956, 156.4972
462.000000, 74.943, 156.5298
468.000000, 74.932, 156.5745
475.000000, 74.923, 156.6391
482.000000, 74.916, 156.7052
487.000000, 74.911, 156.7494
494.000000, 74.902, 156.7909
500.000000, 74.893, 156.8131
508.000000, 74.882, 156.8304
515.000000, 74.875, 156.8498
522.000000, 74.866, 156.8799
530.000000, 74.859, 156.9391
538.000000, 74.849, 156.9310
545.000000, 74.836, 156.9030
552.000000, 74.821, 156.9047
560.000000, 74.803, 156.9220
570.000000, 74.776, 156.9626
580.000000, 74.749, 157.0045
590.000000, 74.723, 157.0277
600.000000, 74.693, 157.1269
608.000000, 74.667, 157.2357
615.000000, 74.646, 157.3215
622.000000, 74.628, 157.4083
630.000000, 74.604, 157.5400
640.000000, 74.574, 157.6942
650.000000, 74.548, 157.8646
660.000000, 74.518, 158.0458
670.000000, 74.484, 158.2253
680.000000, 74.458, 158.4156
690.000000, 74.436, 158.6495
700.000000, 74.407, 158.9079
710.000000, 74.379, 159.1675
720.000000, 74.355, 159.4056
730.000000, 74.335, 159.6602
740.000000, 74.314, 159.9326
750.000000, 74.292, 160.2106
762.000000, 74.266, 160.5820
775.000000, 74.237, 161.0490
788.000000, 74.214, 161.5285
800.000000, 74.197, 161.9650
812.000000, 74.188, 162.4281
825.000000, 74.186, 162.9344
838.000000, 74.180, 163.4542
850.000000, 74.177, 163.9800
862.000000, 74.182, 164.5328
875.000000, 74.198, 165.1159
885.000000, 74.217, 165.5598
900.000000, 74.245, 166.2302
912.000000, 74.268, 166.7680
925.000000, 74.299, 167.3629
938.000000, 74.336, 167.9843
950.000000, 74.379, 168.5481
962.000000, 74.429, 169.0946
975.000000, 74.482, 169.7010
988.000000, 74.536, 170.2716
1000.000000, 74.593, 170.7593
1015.000000, 74.681, 171.3600
1030.000000, 74.767, 171.9005
1044.000000, 74.849, 172.3992
1060.000000, 74.951, 172.9427
1075.000000, 75.054, 173.4076
1090.000000, 75.162, 173.8533
1106.000000, 75.282, 174.3052
1120.000000, 75.392, 174.6394
1138.000000, 75.537, 174.9913
1150.000000, 75.634, 175.1859
1172.000000, 75.811, 175.4529
1180.000000, 75.875, 175.5248
1206.000000, 76.079, 175.6445
1220.000000, 76.185, 175.6025
1241.000000, 76.328, 175.4575
1250.000000, 76.387, 175.3899
1265.000000, 76.482, 175.2766
1280.000000, 76.568, 175.1715
1315.000000, 76.743, 174.9223
1320.000000, 76.766, 174.8945
1340.000000, 76.856, 174.7959
1360.000000, 76.940, 174.7053
1380.000000, 77.020, 174.6122
1400.000000, 77.097, 174.5561
1430.000000, 77.210, 174.5197
1450.000000, 77.288, 174.5611
1475.000000, 77.392, 174.6277
1500.000000, 77.498, 174.6964
1525.000000, 77.606, 174.7757
1550.000000, 77.716, 174.8492
1575.000000, 77.828, 174.8876
1600.000000, 77.943, 174.9461
1625.000000, 78.063, 175.0257
1650.000000, 78.190, 175.0943
1675.000000, 78.320, 175.1535
1700.000000, 78.456, 175.1639
1725.000000, 78.600, 175.1305
1750.000000, 78.746, 175.0602
1775.000000, 78.891, 174.9361
1800.000000, 79.039, 174.7728
1825.000000, 79.189, 174.5880
1850.000000, 79.335, 174.3551
1875.000000, 79.479, 174.0934
1900.000000, 79.617, 173.7959
1925.000000, 79.756, 173.4536
1950.000000, 79.898, 173.0687
1975.000000, 80.039, 172.6547
2000.000000, 80.176, 172.1962
2030.000000, 80.338, 171.6079
2060.000000, 80.497, 170.9605
2090.000000, 80.645, 170.2554
2120.000000, 80.785, 169.4853
2140.000000, 80.873, 168.9489
2180.000000, 81.036, 167.8672
2200.000000, 81.112, 167.3229
2240.000000, 81.251, 166.2360
2270.000000, 81.347, 165.4241
2300.000000, 81.438, 164.6192
2330.000000, 81.523, 163.8279
2360.000000, 81.606, 163.0524
2400.000000, 81.715, 162.0330
2430.000000, 81.793, 161.2716
2470.000000, 81.896, 160.2375
2500.000000, 81.975, 159.4559
2540.000000, 82.081, 158.4000
2580.000000, 82.186, 157.3013
2620.000000, 82.293, 156.1335
2650.000000, 82.374, 155.1919
2690.000000, 82.479, 153.8414
2720.000000, 82.555, 152.7478
2760.000000, 82.648, 151.1693
2800.000000, 82.727, 149.4443
2850.000000, 82.800, 147.0675
2900.000000, 82.826, 144.4431
2950.000000, 82.781, 141.6523
3000.000000, 82.652, 138.7995
3040.000000, 82.482, 136.6219
3070.000000, 82.316, 135.1310
3110.000000, 82.054, 133.4237
3150.000000, 81.761, 132.1054
3200.000000, 81.374, 131.0292
3250.000000, 80.993, 130.5392
3300.000000, 80.644, 130.5714
3350.000000, 80.340, 131.0147
3400.000000, 80.091, 131.7535
3450.000000, 79.896, 132.6655
3500.000000, 79.753, 133.7043
3550.000000, 79.671, 134.7756
3600.000000, 79.649, 135.7400
3650.000000, 79.675, 136.4938
3700.000000, 79.730, 136.9624
3750.000000, 79.796, 137.1408
3820.000000, 79.881, 137.0054
3870.000000, 79.933, 136.7231
3950.000000, 80.005, 135.9807
4000.000000, 80.041, 135.3654
4060.000000, 80.070, 134.4909
4120.000000, 80.087, 133.4818
4180.000000, 80.087, 132.2988
4250.000000, 80.057, 130.7216
4310.000000, 79.991, 129.2516
4370.000000, 79.884, 127.7063
4440.000000, 79.709, 125.9142
4500.000000, 79.518, 124.4625
4550.000000, 79.335, 123.3568
4620.000000, 79.052, 121.9951
4680.000000, 78.796, 121.0215
4750.000000, 78.494, 120.0548
4820.000000, 78.183, 119.1915
4870.000000, 77.956, 118.6299
4940.000000, 77.629, 117.9166
5000.000000, 77.342, 117.3580
5080.000000, 76.941, 116.7450
5150.000000, 76.570, 116.3551
5220.000000, 76.181, 116.1398
5300.000000, 75.719, 116.1506
5380.000000, 75.253, 116.4594
5450.000000, 74.853, 116.9971
5520.000000, 74.462, 117.7446
5600.000000, 74.031, 118.8218
5700.000000, 73.528, 120.4899
5800.000000, 73.076, 122.3634
5900.000000, 72.666, 124.3819
6000.000000, 72.294, 126.5911
6080.000000, 72.036, 128.3991
6150.000000, 71.833, 130.0187
6220.000000, 71.649, 131.6794
6300.000000, 71.469, 133.6061
6400.000000, 71.286, 136.0152
6500.000000, 71.153, 138.3953
6600.000000, 71.065, 140.7194
6700.000000, 71.027, 142.9798
6800.000000, 71.028, 145.1310
6900.000000, 71.059, 147.1612
7000.000000, 71.130, 149.0605
7100.000000, 71.239, 150.8570
7200.000000, 71.380, 152.5781
7300.000000, 71.566, 154.2253
7400.000000, 71.799, 155.6455
7500.000000, 72.056, 156.7586
7620.000000, 72.376, 157.7401
7750.000000, 72.744, 158.4956
7880.000000, 73.127, 159.0085
8000.000000, 73.490, 159.3117
8120.000000, 73.863, 159.3300
8250.000000, 74.267, 159.0583
8380.000000, 74.648, 158.4544
8500.000000, 74.962, 157.6134
8620.000000, 75.218, 156.6584
8750.000000, 75.438, 155.9449
8850.000000, 75.622, 155.6398
9000.000000, 75.895, 154.8333
9120.000000, 76.051, 154.0655
9250.000000, 76.161, 153.4474
9380.000000, 76.235, 153.1237
9500.000000, 76.284, 153.0916
9620.000000, 76.322, 153.2951
9750.000000, 76.360, 153.6936
9880.000000, 76.391, 154.2155
10000.000000, 76.411, 154.7730
10150.000000, 76.411, 155.5608
10300.000000, 76.372, 156.4864
10440.000000, 76.307, 157.5627
10600.000000, 76.195, 159.0379
10750.000000, 76.045, 160.7003
10900.000000, 75.857, 162.7406
11060.000000, 75.626, 165.4371
11200.000000, 75.417, 168.2295
11380.000000, 75.153, 172.3491
11500.000000, 74.992, 175.4308
11720.000000, 74.738, -178.3606
11800.000000, 74.660, -175.9711
12060.000000, 74.461, -167.8489
12200.000000, 74.384, -163.2836
12410.000000, 74.317, -156.1075
12500.000000, 74.319, -152.9034
12650.000000, 74.383, -147.5244
12800.000000, 74.524, -142.3659
13150.000000, 74.982, -132.2359
13200.000000, 75.051, -131.0371
13400.000000, 75.304, -126.8650
13600.000000, 75.472, -123.5936
13800.000000, 75.512, -121.0188
14000.000000, 75.397, -118.8425
14300.000000, 74.935, -115.6368
14500.000000, 74.456, -113.2377
14750.000000, 73.688, -109.7520
15000.000000, 72.746, -105.7109
15250.000000, 71.580, -100.8564
15500.000000, 70.153, -93.7829
15750.000000, 68.787, -82.8238
16000.000000, 67.844, -71.1730
16250.000000, 67.010, -60.9191
16500.000000, 66.090, -50.2337
16750.000000, 65.197, -38.3236
17000.000000, 64.453, -25.6621
17250.000000, 63.884, -13.3469
17500.000000, 63.391, -2.2235
17750.000000, 62.793, 7.7932
18000.000000, 62.000, 17.7096
18250.000000, 61.011, 28.6649
18500.000000, 59.909, 41.7294
18750.000000, 58.916, 57.2234
19000.000000, 58.257, 73.3389
19250.000000, 57.854, 87.7177
19500.000000, 57.510, 99.7734
19750.000000, 57.128, 109.2165
20000.000000, 56.796, 115.2572
