* Measurement data measured by REW V5.31.3
* Source: Input device not selected, no input selected, L, volume: no control
* Format: 256k Log Swept Sine, 1 sweep at -12.0 dBFS with no timing reference
* Dated: Sep 9, 2024 6:18:49 PM
* REW Settings:
*  C-weighting compensation: Off
*  Target level: 75.0 dB
* Note: ; 
* Measurement: Davinci (Velvet M) L
* Smoothing: 1/24 octave
* Frequency Step: 1/48 octave
* Start Frequency: 20.300 Hz
*
* Freq(Hz), SPL(dB), Phase(degrees)
20.299999, 83.356, -173.4536
20.600000, 83.353, -173.7803
20.900000, 83.347, -174.1449
21.200001, 83.342, -174.5247
21.400000, 83.341, -174.7833
21.799999, 83.345, -175.3016
22.000000, 83.350, -175.5556
22.400000, 83.365, -176.0442
22.700001, 83.378, -176.3919
23.000000, 83.388, -176.7251
23.299999, 83.392, -177.0449
23.600000, 83.390, -177.3511
24.000000, 83.378, -177.7355
24.299999, 83.364, -178.0064
24.700001, 83.347, -178.3528
25.000000, 83.337, -178.6120
25.400000, 83.331, -178.9722
25.799999, 83.329, -179.3548
26.200001, 83.328, -179.7499
26.500000, 83.324, 179.9574
26.900000, 83.315, 179.5847
27.200001, 83.305, 179.3201
27.600000, 83.291, 178.9797
28.000000, 83.278, 178.6389
28.500000, 83.262, 178.1965
29.000000, 83.249, 177.7414
29.500000, 83.239, 177.2957
30.000000, 83.230, 176.8748
30.400000, 83.225, 176.5538
30.700001, 83.221, 176.3173
31.100000, 83.214, 176.0031
31.500000, 83.204, 175.6888
32.000000, 83.187, 175.2996
32.500000, 83.169, 174.9172
33.000000, 83.151, 174.5398
33.500000, 83.136, 174.1692
34.000000, 83.123, 173.8193
34.500000, 83.111, 173.5035
35.000000, 83.101, 173.2139
35.500000, 83.091, 172.9221
36.000000, 83.077, 172.6073
36.500000, 83.059, 172.2751
37.000000, 83.040, 171.9441
37.500000, 83.024, 171.6240
38.200001, 83.005, 171.1985
38.700001, 82.992, 170.9218
39.500000, 82.970, 170.5026
40.000000, 82.958, 170.1911
40.599998, 82.940, 169.7329
41.200001, 82.913, 169.2631
41.799999, 82.888, 168.8808
42.500000, 82.872, 168.5280
43.099998, 82.861, 168.2221
43.700001, 82.841, 167.8987
44.400002, 82.805, 167.5336
45.000000, 82.773, 167.2245
45.500000, 82.749, 166.9589
46.200001, 82.721, 166.5858
46.799999, 82.702, 166.2771
47.500000, 82.677, 165.9423
48.200001, 82.645, 165.6633
48.700001, 82.622, 165.4884
49.400002, 82.597, 165.2039
50.000000, 82.579, 164.8857
50.799999, 82.549, 164.4482
51.500000, 82.519, 164.1594
52.200001, 82.493, 163.9324
53.000000, 82.467, 163.6276
53.799999, 82.439, 163.2518
54.500000, 82.410, 162.9268
55.200001, 82.380, 162.6182
56.000000, 82.345, 162.2361
57.000000, 82.297, 161.7520
58.000000, 82.258, 161.3841
59.000000, 82.223, 161.0688
60.000000, 82.172, 160.7280
60.799999, 82.130, 160.4001
61.500000, 82.092, 160.0808
62.200001, 82.052, 159.8030
63.000000, 82.012, 159.5756
64.000000, 81.974, 159.3044
65.000000, 81.928, 158.9919
66.000000, 81.878, 158.6697
67.000000, 81.831, 158.2490
68.000000, 81.781, 157.8004
69.000000, 81.734, 157.3878
70.000000, 81.683, 156.9894
71.000000, 81.632, 156.6493
72.000000, 81.594, 156.3371
73.000000, 81.555, 156.0392
74.000000, 81.510, 155.7736
75.000000, 81.463, 155.5139
76.199997, 81.407, 155.2062
77.500000, 81.339, 154.9078
78.800003, 81.266, 154.6040
80.000000, 81.199, 154.2925
81.199997, 81.133, 153.9722
82.500000, 81.064, 153.6304
83.800003, 80.998, 153.3195
85.000000, 80.942, 153.0481
86.199997, 80.883, 152.7834
87.500000, 80.811, 152.5089
88.500000, 80.755, 152.3022
90.000000, 80.676, 152.0402
91.199997, 80.612, 151.8326
92.500000, 80.542, 151.5823
93.800003, 80.475, 151.3628
95.000000, 80.412, 151.1454
96.199997, 80.345, 150.9423
97.500000, 80.273, 150.7500
98.800003, 80.202, 150.5475
100.000000, 80.139, 150.3915
101.500000, 80.063, 150.2037
103.000000, 79.986, 149.9617
104.400002, 79.914, 149.7787
106.000000, 79.831, 149.6365
107.500000, 79.749, 149.4666
109.000000, 79.666, 149.2839
110.599998, 79.580, 149.1299
112.000000, 79.502, 149.0250
113.800003, 79.404, 148.8774
115.000000, 79.341, 148.7762
117.199997, 79.237, 148.6189
118.000000, 79.199, 148.5703
120.599998, 79.067, 148.4390
122.000000, 78.989, 148.3803
124.099998, 78.876, 148.2958
125.000000, 78.831, 148.2618
126.500000, 78.760, 148.2148
128.000000, 78.684, 148.1938
131.500000, 78.506, 148.2035
132.000000, 78.483, 148.2014
134.000000, 78.390, 148.1786
136.000000, 78.290, 148.1810
138.000000, 78.192, 148.2328
140.000000, 78.099, 148.3143
143.000000, 77.956, 148.4100
145.000000, 77.859, 148.5289
147.500000, 77.743, 148.6727
150.000000, 77.636, 148.7723
152.500000, 77.528, 148.9123
155.000000, 77.418, 149.1134
157.500000, 77.310, 149.3256
160.000000, 77.200, 149.5562
162.500000, 77.095, 149.7739
165.000000, 77.001, 150.0538
167.500000, 76.907, 150.3045
170.000000, 76.812, 150.5528
172.500000, 76.720, 150.8301
175.000000, 76.632, 151.1226
177.500000, 76.544, 151.4732
180.000000, 76.455, 151.7889
182.500000, 76.371, 152.1105
185.000000, 76.294, 152.4642
187.500000, 76.219, 152.7988
190.000000, 76.141, 153.1573
192.500000, 76.068, 153.5288
195.000000, 76.000, 153.9082
197.500000, 75.933, 154.3011
200.000000, 75.868, 154.7003
203.000000, 75.792, 155.1766
206.000000, 75.719, 155.5893
209.000000, 75.651, 156.0167
212.000000, 75.591, 156.4915
214.000000, 75.552, 156.8401
218.000000, 75.470, 157.5172
220.000000, 75.430, 157.8492
224.000000, 75.359, 158.4943
227.000000, 75.311, 158.9409
230.000000, 75.264, 159.3843
233.000000, 75.216, 159.8494
236.000000, 75.166, 160.3354
240.000000, 75.108, 161.0077
243.000000, 75.071, 161.4963
247.000000, 75.024, 162.1714
250.000000, 74.997, 162.7451
254.000000, 74.963, 163.5070
258.000000, 74.934, 164.2371
262.000000, 74.926, 164.9110
265.000000, 74.926, 165.3534
269.000000, 74.924, 165.8943
272.000000, 74.918, 166.2650
276.000000, 74.900, 166.7714
280.000000, 74.881, 167.2706
285.000000, 74.865, 167.9483
290.000000, 74.862, 168.6933
295.000000, 74.876, 169.4474
300.000000, 74.908, 170.1602
304.000000, 74.951, 170.6180
307.000000, 74.985, 170.8827
311.000000, 75.019, 171.1362
315.000000, 75.040, 171.3153
320.000000, 75.056, 171.5295
325.000000, 75.067, 171.7587
330.000000, 75.070, 172.0050
335.000000, 75.075, 172.2518
340.000000, 75.083, 172.5012
345.000000, 75.089, 172.7676
350.000000, 75.092, 173.0042
355.000000, 75.093, 173.2297
360.000000, 75.092, 173.4343
365.000000, 75.091, 173.6487
370.000000, 75.089, 173.8593
375.000000, 75.085, 174.0826
382.000000, 75.085, 174.3736
387.000000, 75.082, 174.5856
395.000000, 75.081, 174.9170
400.000000, 75.081, 175.1021
406.000000, 75.079, 175.3051
412.000000, 75.074, 175.5331
418.000000, 75.069, 175.7432
425.000000, 75.058, 175.9454
431.000000, 75.048, 176.1280
437.000000, 75.041, 176.3244
444.000000, 75.029, 176.5669
450.000000, 75.019, 176.7398
455.000000, 75.007, 176.8850
462.000000, 74.989, 177.1042
468.000000, 74.974, 177.3245
475.000000, 74.960, 177.5681
482.000000, 74.943, 177.8179
487.000000, 74.928, 178.0066
494.000000, 74.913, 178.2828
500.000000, 74.906, 178.5095
508.000000, 74.897, 178.7948
515.000000, 74.891, 179.0475
522.000000, 74.882, 179.3056
530.000000, 74.868, 179.5757
538.000000, 74.854, 179.8438
545.000000, 74.842, -179.9451
552.000000, 74.829, -179.7527
560.000000, 74.815, -179.5670
570.000000, 74.793, -179.3121
580.000000, 74.771, -179.0315
590.000000, 74.743, -178.7488
600.000000, 74.709, -178.3926
608.000000, 74.682, -178.1106
615.000000, 74.658, -177.8818
622.000000, 74.633, -177.6328
630.000000, 74.607, -177.3190
640.000000, 74.577, -176.9292
650.000000, 74.547, -176.5413
660.000000, 74.515, -176.1321
670.000000, 74.485, -175.7094
680.000000, 74.459, -175.3138
690.000000, 74.433, -174.8945
700.000000, 74.404, -174.4480
710.000000, 74.373, -173.9694
720.000000, 74.343, -173.4581
730.000000, 74.318, -172.9348
740.000000, 74.296, -172.4261
750.000000, 74.277, -171.9136
762.000000, 74.253, -171.2919
775.000000, 74.227, -170.6163
788.000000, 74.205, -169.8671
800.000000, 74.191, -169.1802
812.000000, 74.181, -168.5014
825.000000, 74.171, -167.7256
838.000000, 74.167, -166.9253
850.000000, 74.168, -166.1837
862.000000, 74.171, -165.4370
875.000000, 74.176, -164.6075
885.000000, 74.187, -163.9923
900.000000, 74.210, -163.0416
912.000000, 74.232, -162.2732
925.000000, 74.265, -161.4931
938.000000, 74.301, -160.7233
950.000000, 74.341, -159.9900
962.000000, 74.386, -159.2534
975.000000, 74.441, -158.4849
988.000000, 74.499, -157.7700
1000.000000, 74.555, -157.1476
1015.000000, 74.624, -156.3244
1030.000000, 74.704, -155.5117
1044.000000, 74.783, -154.7980
1060.000000, 74.876, -154.0266
1075.000000, 74.968, -153.3369
1090.000000, 75.062, -152.6950
1106.000000, 75.172, -152.0394
1120.000000, 75.273, -151.5032
1138.000000, 75.404, -150.9169
1150.000000, 75.489, -150.5959
1172.000000, 75.652, -150.0879
1180.000000, 75.713, -149.9157
1206.000000, 75.901, -149.4956
1220.000000, 75.993, -149.3548
1241.000000, 76.119, -149.1684
1250.000000, 76.168, -149.0987
1265.000000, 76.244, -149.0180
1280.000000, 76.315, -148.9487
1315.000000, 76.462, -148.6907
1320.000000, 76.481, -148.6481
1340.000000, 76.552, -148.4817
1360.000000, 76.621, -148.3151
1380.000000, 76.689, -148.0883
1400.000000, 76.757, -147.8416
1430.000000, 76.853, -147.4396
1450.000000, 76.918, -147.1468
1475.000000, 77.005, -146.7726
1500.000000, 77.093, -146.3639
1525.000000, 77.186, -145.9554
1550.000000, 77.282, -145.5479
1575.000000, 77.383, -145.1385
1600.000000, 77.489, -144.7084
1625.000000, 77.601, -144.2916
1650.000000, 77.718, -143.9019
1675.000000, 77.838, -143.5375
1700.000000, 77.966, -143.1851
1725.000000, 78.099, -142.8633
1750.000000, 78.235, -142.5698
1775.000000, 78.373, -142.3106
1800.000000, 78.516, -142.0959
1825.000000, 78.665, -141.9244
1850.000000, 78.818, -141.7907
1875.000000, 78.973, -141.7121
1900.000000, 79.128, -141.7043
1925.000000, 79.284, -141.7569
1950.000000, 79.440, -141.8602
1975.000000, 79.593, -142.0057
2000.000000, 79.745, -142.2025
2030.000000, 79.930, -142.5358
2060.000000, 80.109, -142.9454
2090.000000, 80.281, -143.4344
2120.000000, 80.446, -143.9846
2140.000000, 80.550, -144.3762
2180.000000, 80.746, -145.2043
2200.000000, 80.840, -145.6558
2240.000000, 81.016, -146.6086
2270.000000, 81.136, -147.3338
2300.000000, 81.248, -148.0765
2330.000000, 81.355, -148.8377
2360.000000, 81.457, -149.5990
2400.000000, 81.586, -150.6097
2430.000000, 81.679, -151.3778
2470.000000, 81.800, -152.4336
2500.000000, 81.891, -153.2479
2540.000000, 82.009, -154.3686
2580.000000, 82.126, -155.5564
2620.000000, 82.242, -156.8282
2650.000000, 82.327, -157.8557
2690.000000, 82.435, -159.3431
2720.000000, 82.507, -160.5577
2760.000000, 82.588, -162.3239
2800.000000, 82.647, -164.2327
2850.000000, 82.676, -166.7851
2900.000000, 82.643, -169.5094
2950.000000, 82.531, -172.2674
3000.000000, 82.331, -174.8862
3040.000000, 82.109, -176.7161
3070.000000, 81.913, -177.8565
3110.000000, 81.627, -178.9805
3150.000000, 81.338, -179.5944
3200.000000, 81.014, -179.7485
3250.000000, 80.763, -179.4564
3300.000000, 80.595, -179.0040
3350.000000, 80.488, -178.6149
3400.000000, 80.422, -178.4178
3450.000000, 80.379, -178.4035
3500.000000, 80.348, -178.5144
3550.000000, 80.320, -178.7215
3600.000000, 80.294, -178.9761
3650.000000, 80.271, -179.2946
3700.000000, 80.251, -179.6442
3750.000000, 80.234, 179.9757
3820.000000, 80.215, 179.4208
3870.000000, 80.210, 178.9894
3950.000000, 80.219, 178.2032
4000.000000, 80.235, 177.6115
4060.000000, 80.264, 176.7560
4120.000000, 80.295, 175.7169
4180.000000, 80.324, 174.4736
4250.000000, 80.341, 172.7707
4310.000000, 80.329, 171.1203
4370.000000, 80.287, 169.3204
4440.000000, 80.191, 167.1253
4500.000000, 80.068, 165.2545
4550.000000, 79.941, 163.7479
4620.000000, 79.735, 161.7776
4680.000000, 79.543, 160.2331
4750.000000, 79.305, 158.5706
4820.000000, 79.061, 157.0112
4870.000000, 78.884, 155.9500
4940.000000, 78.630, 154.5272
5000.000000, 78.408, 153.3443
5080.000000, 78.103, 151.7900
5150.000000, 77.815, 150.4919
5220.000000, 77.504, 149.3118
5300.000000, 77.126, 148.1641
5380.000000, 76.734, 147.3066
5450.000000, 76.393, 146.8292
5520.000000, 76.064, 146.5683
5600.000000, 75.708, 146.5050
5700.000000, 75.302, 146.7122
5800.000000, 74.948, 147.1621
5900.000000, 74.648, 147.8039
6000.000000, 74.406, 148.6107
6080.000000, 74.263, 149.2794
6150.000000, 74.170, 149.8641
6220.000000, 74.108, 150.4348
6300.000000, 74.077, 151.0150
6400.000000, 74.093, 151.6203
6500.000000, 74.168, 152.0661
6600.000000, 74.301, 152.3609
6700.000000, 74.501, 152.4590
6800.000000, 74.760, 152.2614
6900.000000, 75.070, 151.7440
7000.000000, 75.433, 150.8795
7100.000000, 75.842, 149.6056
7200.000000, 76.301, 147.9051
7300.000000, 76.803, 145.7288
7400.000000, 77.354, 142.9648
7500.000000, 77.938, 139.3883
7620.000000, 78.620, 133.8741
7750.000000, 79.264, 126.4130
7880.000000, 79.717, 117.7284
8000.000000, 79.914, 109.1110
8120.000000, 79.890, 100.3587
8250.000000, 79.613, 91.2853
8380.000000, 79.124, 83.1527
8500.000000, 78.540, 76.6823
8620.000000, 77.858, 71.2851
8750.000000, 77.038, 67.1021
8850.000000, 76.466, 65.2037
9000.000000, 75.797, 62.8813
9120.000000, 75.311, 61.2179
9250.000000, 74.806, 59.8839
9380.000000, 74.340, 59.0058
9500.000000, 73.948, 58.5337
9620.000000, 73.588, 58.3269
9750.000000, 73.232, 58.3314
9880.000000, 72.913, 58.5591
10000.000000, 72.647, 58.9605
10150.000000, 72.346, 59.7133
10300.000000, 72.070, 60.7875
10440.000000, 71.846, 62.0878
10600.000000, 71.642, 63.8420
10750.000000, 71.489, 65.5865
10900.000000, 71.367, 67.4846
11060.000000, 71.279, 69.7198
11200.000000, 71.241, 71.8345
11380.000000, 71.248, 74.6570
11500.000000, 71.289, 76.6040
11720.000000, 71.430, 80.1895
11800.000000, 71.504, 81.4944
12060.000000, 71.818, 85.5715
12200.000000, 72.029, 87.6375
12410.000000, 72.395, 90.5920
12500.000000, 72.576, 91.8532
12650.000000, 72.927, 93.9282
12800.000000, 73.353, 95.7820
13150.000000, 74.568, 97.8070
13200.000000, 74.751, 97.7638
13400.000000, 75.466, 96.7709
13600.000000, 76.116, 94.5584
13800.000000, 76.651, 91.2779
14000.000000, 77.038, 87.1770
14300.000000, 77.323, 80.1273
14500.000000, 77.338, 75.1059
14750.000000, 77.171, 68.5439
15000.000000, 76.765, 61.5267
15250.000000, 75.984, 54.3139
15500.000000, 74.691, 49.0024
15750.000000, 73.270, 48.6852
16000.000000, 72.415, 49.8664
16250.000000, 71.712, 48.8139
16500.000000, 70.811, 47.6027
16750.000000, 69.804, 47.3026
17000.000000, 68.788, 47.7783
17250.000000, 67.768, 48.6766
17500.000000, 66.692, 50.0376
17750.000000, 65.551, 52.3441
18000.000000, 64.426, 55.8487
18250.000000, 63.410, 60.3303
18500.000000, 62.520, 65.4168
18750.000000, 61.814, 70.6597
19000.000000, 61.331, 74.6895
19250.000000, 60.834, 75.9308
19500.000000, 60.031, 75.4098
19750.000000, 58.967, 75.1906
20000.000000, 58.210, 75.1551
