* Measurement data measured by REW V5.31.3
* Source: Input device not selected, no input selected, L, volume: no control
* Format: 256k Log Swept Sine, 1 sweep at -12.0 dBFS with no timing reference
* Dated: Sep 14, 2024 12:30:40 AM
* REW Settings:
*  C-weighting compensation: Off
*  Target level: 75.0 dB
* Note: ; 
* Measurement: Davinci to JM-1 -0.8 L
* Smoothing: 1/24 octave
* Frequency Step: 1/48 octave
* Start Frequency: 20.300 Hz
*
* Freq(Hz), SPL(dB), Phase(degrees)
20.299999, 80.921, -176.2561
20.600000, 80.929, -176.3309
20.900000, 80.940, -176.4106
21.200001, 80.954, -176.4938
21.400000, 80.963, -176.5531
21.799999, 80.974, -176.6823
22.000000, 80.974, -176.7507
22.400000, 80.963, -176.8882
22.700001, 80.948, -176.9868
23.000000, 80.932, -177.0816
23.299999, 80.921, -177.1773
23.600000, 80.918, -177.2813
24.000000, 80.929, -177.4388
24.299999, 80.945, -177.5656
24.700001, 80.971, -177.7255
25.000000, 80.990, -177.8261
25.400000, 81.012, -177.9368
25.799999, 81.033, -178.0535
26.200001, 81.053, -178.2228
26.500000, 81.068, -178.3982
26.900000, 81.088, -178.6790
27.200001, 81.103, -178.8949
27.600000, 81.124, -179.1445
28.000000, 81.145, -179.3264
28.500000, 81.169, -179.4788
29.000000, 81.184, -179.6089
29.500000, 81.192, -179.7685
30.000000, 81.206, -179.9882
30.400000, 81.229, 179.7783
30.700001, 81.253, 179.5704
31.100000, 81.286, 179.2697
31.500000, 81.313, 178.9778
32.000000, 81.332, 178.6649
32.500000, 81.338, 178.3855
33.000000, 81.341, 178.0651
33.500000, 81.348, 177.6791
34.000000, 81.363, 177.2908
34.500000, 81.392, 176.9626
35.000000, 81.432, 176.6698
35.500000, 81.463, 176.3466
36.000000, 81.466, 175.9933
36.500000, 81.445, 175.6817
37.000000, 81.426, 175.4465
37.500000, 81.431, 175.2185
38.200001, 81.464, 174.7510
38.700001, 81.481, 174.3481
39.500000, 81.492, 173.8298
40.000000, 81.509, 173.5951
40.599998, 81.539, 173.3032
41.200001, 81.556, 172.9818
41.799999, 81.553, 172.6733
42.500000, 81.545, 172.2751
43.099998, 81.548, 171.8147
43.700001, 81.558, 171.2958
44.400002, 81.568, 170.7770
45.000000, 81.568, 170.4248
45.500000, 81.558, 170.1392
46.200001, 81.533, 169.7076
46.799999, 81.518, 169.3415
47.500000, 81.517, 168.9586
48.200001, 81.519, 168.6121
48.700001, 81.512, 168.3597
49.400002, 81.498, 167.9537
50.000000, 81.489, 167.5570
50.799999, 81.481, 167.0696
51.500000, 81.470, 166.7464
52.200001, 81.458, 166.4322
53.000000, 81.453, 165.9305
53.799999, 81.451, 165.3105
54.500000, 81.435, 164.8516
55.200001, 81.406, 164.5089
56.000000, 81.376, 164.0062
57.000000, 81.337, 163.2560
58.000000, 81.327, 163.0662
59.000000, 81.357, 162.8370
60.000000, 81.312, 162.0939
60.799999, 81.253, 161.5970
61.500000, 81.228, 161.3182
62.200001, 81.221, 161.0901
63.000000, 81.216, 160.7993
64.000000, 81.194, 160.2874
65.000000, 81.151, 159.7013
66.000000, 81.121, 159.1703
67.000000, 81.111, 158.7849
68.000000, 81.088, 158.6129
69.000000, 81.051, 158.5273
70.000000, 81.024, 158.1706
71.000000, 80.978, 157.5419
72.000000, 80.931, 156.9045
73.000000, 80.904, 156.2263
74.000000, 80.867, 155.7645
75.000000, 80.831, 155.5911
76.199997, 80.801, 155.2437
77.500000, 80.770, 154.7970
78.800003, 80.729, 154.4185
80.000000, 80.693, 153.8464
81.199997, 80.654, 153.1688
82.500000, 80.614, 152.5776
83.800003, 80.575, 152.1065
85.000000, 80.530, 151.8139
86.199997, 80.490, 151.4204
87.500000, 80.450, 150.8867
88.500000, 80.417, 150.4516
90.000000, 80.372, 149.7668
91.199997, 80.341, 149.2947
92.500000, 80.298, 148.7988
93.800003, 80.263, 148.2810
95.000000, 80.235, 147.8333
96.199997, 80.192, 147.3815
97.500000, 80.139, 146.8640
98.800003, 80.093, 146.2735
100.000000, 80.058, 145.6904
101.500000, 80.025, 145.0166
103.000000, 79.990, 144.1456
104.400002, 79.927, 143.2667
106.000000, 79.820, 142.2776
107.500000, 79.750, 140.9137
109.000000, 79.654, 139.4095
110.599998, 79.463, 138.0935
112.000000, 79.271, 137.1318
113.800003, 78.988, 136.3276
115.000000, 78.798, 135.9960
117.199997, 78.496, 135.4840
118.000000, 78.390, 135.3798
120.599998, 78.039, 135.3550
122.000000, 77.862, 135.2969
124.099998, 77.609, 135.3331
125.000000, 77.511, 135.3680
126.500000, 77.353, 135.4375
128.000000, 77.179, 135.6484
131.500000, 76.773, 136.4342
132.000000, 76.720, 136.5014
134.000000, 76.511, 136.7856
136.000000, 76.309, 137.2307
138.000000, 76.091, 137.9379
140.000000, 75.931, 138.7927
143.000000, 75.780, 139.7797
145.000000, 75.653, 140.3718
147.500000, 75.470, 141.4559
150.000000, 75.317, 142.4612
152.500000, 75.224, 143.5873
155.000000, 75.139, 144.7196
157.500000, 75.062, 145.7468
160.000000, 75.003, 146.7891
162.500000, 74.967, 147.7274
165.000000, 74.950, 148.4977
167.500000, 74.945, 149.2567
170.000000, 74.953, 150.0369
172.500000, 74.935, 150.7328
175.000000, 74.909, 151.3786
177.500000, 74.905, 152.0433
180.000000, 74.907, 152.5461
182.500000, 74.916, 152.8983
185.000000, 74.919, 153.2957
187.500000, 74.909, 153.7308
190.000000, 74.898, 154.1238
192.500000, 74.903, 154.4188
195.000000, 74.915, 154.7263
197.500000, 74.914, 155.1094
200.000000, 74.907, 155.4706
203.000000, 74.905, 155.8015
206.000000, 74.911, 156.1821
209.000000, 74.912, 156.5148
212.000000, 74.897, 156.9168
214.000000, 74.892, 157.2476
218.000000, 74.895, 157.8076
220.000000, 74.896, 158.0303
224.000000, 74.899, 158.4015
227.000000, 74.902, 158.7558
230.000000, 74.901, 159.2287
233.000000, 74.914, 159.4379
236.000000, 74.934, 159.6296
240.000000, 74.971, 160.0544
243.000000, 74.989, 160.4016
247.000000, 74.998, 160.8390
250.000000, 75.014, 161.0832
254.000000, 75.055, 161.4143
258.000000, 75.092, 161.7321
262.000000, 75.135, 162.0907
265.000000, 75.173, 162.2689
269.000000, 75.220, 162.3911
272.000000, 75.248, 162.4603
276.000000, 75.290, 162.6041
280.000000, 75.344, 162.7896
285.000000, 75.416, 162.8845
290.000000, 75.483, 162.8762
295.000000, 75.544, 162.8062
300.000000, 75.604, 162.6729
304.000000, 75.641, 162.6045
307.000000, 75.665, 162.4884
311.000000, 75.694, 162.2516
315.000000, 75.715, 162.0015
320.000000, 75.736, 161.7880
325.000000, 75.749, 161.5659
330.000000, 75.768, 161.3154
335.000000, 75.784, 161.1265
340.000000, 75.796, 160.9228
345.000000, 75.797, 160.7756
350.000000, 75.797, 160.6975
355.000000, 75.824, 160.5453
360.000000, 75.875, 160.2830
365.000000, 75.920, 159.8749
370.000000, 75.955, 159.3016
375.000000, 75.968, 158.6172
382.000000, 75.926, 157.4949
387.000000, 75.858, 156.7834
395.000000, 75.706, 155.9813
400.000000, 75.609, 155.7046
406.000000, 75.500, 155.5768
412.000000, 75.390, 155.5013
418.000000, 75.285, 155.4618
425.000000, 75.181, 155.5937
431.000000, 75.109, 155.6572
437.000000, 75.041, 155.6455
444.000000, 74.967, 155.6940
450.000000, 74.906, 155.8095
455.000000, 74.856, 155.9308
462.000000, 74.786, 156.1565
468.000000, 74.721, 156.3276
475.000000, 74.655, 156.4913
482.000000, 74.598, 156.6741
487.000000, 74.565, 156.8465
494.000000, 74.514, 157.0770
500.000000, 74.458, 157.2494
508.000000, 74.386, 157.4901
515.000000, 74.339, 157.6375
522.000000, 74.295, 157.7654
530.000000, 74.244, 158.0073
538.000000, 74.183, 158.2919
545.000000, 74.123, 158.5577
552.000000, 74.059, 158.8786
560.000000, 73.990, 159.2528
570.000000, 73.908, 159.7424
580.000000, 73.840, 160.3803
590.000000, 73.782, 160.9894
600.000000, 73.737, 161.6708
608.000000, 73.718, 162.2188
615.000000, 73.701, 162.7171
622.000000, 73.685, 163.2187
630.000000, 73.674, 163.7471
640.000000, 73.687, 164.3033
650.000000, 73.704, 164.8251
660.000000, 73.707, 165.3373
670.000000, 73.704, 165.8262
680.000000, 73.713, 166.2690
690.000000, 73.728, 166.6431
700.000000, 73.731, 167.0080
710.000000, 73.732, 167.3977
720.000000, 73.726, 167.8400
730.000000, 73.720, 168.2767
740.000000, 73.719, 168.6254
750.000000, 73.718, 168.9696
762.000000, 73.715, 169.4425
775.000000, 73.705, 169.9917
788.000000, 73.701, 170.6016
800.000000, 73.706, 171.1390
812.000000, 73.713, 171.7003
825.000000, 73.716, 172.2691
838.000000, 73.720, 172.8152
850.000000, 73.725, 173.4039
862.000000, 73.738, 174.0195
875.000000, 73.758, 174.6733
885.000000, 73.775, 175.1826
900.000000, 73.808, 175.9313
912.000000, 73.833, 176.5316
925.000000, 73.854, 177.1479
938.000000, 73.882, 177.7401
950.000000, 73.914, 178.3701
962.000000, 73.945, 178.9554
975.000000, 73.977, 179.5938
988.000000, 74.009, -179.6950
1000.000000, 74.051, -179.0160
1015.000000, 74.135, -178.2715
1030.000000, 74.217, -177.6155
1044.000000, 74.282, -177.0239
1060.000000, 74.354, -176.3671
1075.000000, 74.428, -175.7223
1090.000000, 74.508, -175.0691
1106.000000, 74.595, -174.4366
1120.000000, 74.674, -173.8937
1138.000000, 74.774, -173.2387
1150.000000, 74.841, -172.7885
1172.000000, 74.983, -171.8785
1180.000000, 75.038, -171.5700
1206.000000, 75.224, -170.6974
1220.000000, 75.331, -170.2611
1241.000000, 75.486, -169.7004
1250.000000, 75.549, -169.4949
1265.000000, 75.657, -169.1755
1280.000000, 75.768, -168.9369
1315.000000, 76.011, -168.4960
1320.000000, 76.045, -168.4319
1340.000000, 76.173, -168.1902
1360.000000, 76.292, -167.9307
1380.000000, 76.397, -167.7421
1400.000000, 76.495, -167.5684
1430.000000, 76.646, -167.2410
1450.000000, 76.747, -166.9926
1475.000000, 76.872, -166.6417
1500.000000, 76.999, -166.2557
1525.000000, 77.123, -165.8777
1550.000000, 77.256, -165.4944
1575.000000, 77.388, -165.1139
1600.000000, 77.522, -164.7026
1625.000000, 77.665, -164.3038
1650.000000, 77.808, -163.8882
1675.000000, 77.951, -163.5450
1700.000000, 78.100, -163.2275
1725.000000, 78.257, -162.9228
1750.000000, 78.423, -162.6138
1775.000000, 78.592, -162.3338
1800.000000, 78.759, -162.1410
1825.000000, 78.923, -161.9990
1850.000000, 79.095, -161.8802
1875.000000, 79.271, -161.7887
1900.000000, 79.445, -161.7525
1925.000000, 79.617, -161.8053
1950.000000, 79.788, -161.8935
1975.000000, 79.954, -161.9851
2000.000000, 80.117, -162.1198
2030.000000, 80.317, -162.3632
2060.000000, 80.513, -162.6810
2090.000000, 80.696, -163.0150
2120.000000, 80.869, -163.3856
2140.000000, 80.980, -163.6521
2180.000000, 81.198, -164.1845
2200.000000, 81.307, -164.4299
2240.000000, 81.527, -164.9597
2270.000000, 81.690, -165.4077
2300.000000, 81.860, -165.8427
2330.000000, 82.039, -166.3184
2360.000000, 82.226, -166.8997
2400.000000, 82.480, -167.8894
2430.000000, 82.669, -168.8548
2470.000000, 82.891, -170.4514
2500.000000, 83.021, -171.7803
2540.000000, 83.138, -173.5480
2580.000000, 83.211, -175.1970
2620.000000, 83.265, -176.6535
2650.000000, 83.306, -177.6428
2690.000000, 83.365, -178.9315
2720.000000, 83.410, -179.9394
2760.000000, 83.472, 178.6253
2800.000000, 83.523, 177.0571
2850.000000, 83.556, 174.9145
2900.000000, 83.535, 172.5996
2950.000000, 83.447, 170.1773
3000.000000, 83.281, 167.8012
3040.000000, 83.086, 166.1062
3070.000000, 82.909, 165.0356
3110.000000, 82.644, 163.9622
3150.000000, 82.365, 163.3605
3200.000000, 82.047, 163.1981
3250.000000, 81.798, 163.4534
3300.000000, 81.615, 163.8033
3350.000000, 81.479, 164.0468
3400.000000, 81.366, 164.1260
3450.000000, 81.258, 164.0895
3500.000000, 81.146, 163.9640
3550.000000, 81.028, 163.7811
3600.000000, 80.898, 163.5887
3650.000000, 80.755, 163.4687
3700.000000, 80.608, 163.3957
3750.000000, 80.464, 163.4045
3820.000000, 80.267, 163.5145
3870.000000, 80.131, 163.6202
3950.000000, 79.923, 163.7988
4000.000000, 79.801, 163.8967
4060.000000, 79.669, 163.9654
4120.000000, 79.542, 163.8785
4180.000000, 79.404, 163.6176
4250.000000, 79.211, 163.1382
4310.000000, 79.011, 162.6737
4370.000000, 78.770, 162.2392
4440.000000, 78.443, 161.8183
4500.000000, 78.128, 161.5928
4550.000000, 77.848, 161.5675
4620.000000, 77.447, 161.7963
4680.000000, 77.093, 162.2328
4750.000000, 76.677, 163.0096
4820.000000, 76.263, 164.0065
4870.000000, 75.972, 164.8512
4940.000000, 75.581, 166.2227
5000.000000, 75.262, 167.5528
5080.000000, 74.860, 169.4622
5150.000000, 74.531, 171.2094
5220.000000, 74.213, 172.9918
5300.000000, 73.862, 175.1591
5380.000000, 73.543, 177.3976
5450.000000, 73.292, 179.2648
5520.000000, 73.046, -178.9415
5600.000000, 72.739, -176.8821
5700.000000, 72.310, -174.3048
5800.000000, 71.852, -171.1231
5900.000000, 71.418, -167.2877
6000.000000, 71.067, -162.9684
6080.000000, 70.840, -159.3584
6150.000000, 70.682, -156.1086
6220.000000, 70.562, -152.8131
6300.000000, 70.459, -149.0457
6400.000000, 70.377, -144.1894
6500.000000, 70.351, -139.0086
6600.000000, 70.412, -133.5549
6700.000000, 70.619, -127.7521
6800.000000, 71.031, -121.8764
6900.000000, 71.655, -116.5820
7000.000000, 72.443, -112.4036
7100.000000, 73.309, -109.4607
7200.000000, 74.211, -107.5991
7300.000000, 75.133, -106.5826
7400.000000, 76.064, -106.5158
7500.000000, 76.985, -107.4391
7620.000000, 78.036, -109.7051
7750.000000, 79.076, -113.5548
7880.000000, 79.953, -118.6124
8000.000000, 80.604, -124.0740
8120.000000, 81.075, -130.1741
8250.000000, 81.351, -137.0677
8380.000000, 81.380, -143.7960
8500.000000, 81.207, -149.5553
8620.000000, 80.857, -154.6073
8750.000000, 80.316, -158.7239
8850.000000, 79.884, -160.8647
9000.000000, 79.248, -163.4186
9120.000000, 78.698, -164.9380
9250.000000, 78.059, -165.8877
9380.000000, 77.398, -166.1544
9500.000000, 76.774, -165.8419
9620.000000, 76.138, -165.0258
9750.000000, 75.441, -163.6348
9880.000000, 74.730, -161.7104
10000.000000, 74.054, -159.4819
10150.000000, 73.191, -156.0562
10300.000000, 72.327, -151.8223
10440.000000, 71.524, -147.1256
10600.000000, 70.607, -140.9855
10750.000000, 69.752, -134.5088
10900.000000, 68.916, -127.2549
11060.000000, 68.057, -118.6756
11200.000000, 67.348, -110.4964
11380.000000, 66.495, -99.1216
11500.000000, 65.973, -90.9519
11720.000000, 65.124, -74.8665
11800.000000, 64.862, -68.6365
12060.000000, 64.196, -46.9441
12200.000000, 63.984, -34.0616
12410.000000, 64.089, -13.2323
12500.000000, 64.329, -4.2218
12650.000000, 64.966, 10.0657
12800.000000, 65.833, 22.6585
13150.000000, 68.176, 45.1545
13200.000000, 68.507, 47.7114
13400.000000, 69.764, 56.4661
13600.000000, 70.880, 63.2687
13800.000000, 71.793, 68.7243
14000.000000, 72.480, 73.3587
14300.000000, 73.159, 79.5509
14500.000000, 73.419, 83.6496
14750.000000, 73.556, 88.9109
15000.000000, 73.470, 94.1641
15250.000000, 73.094, 99.9234
15500.000000, 72.524, 108.2257
15750.000000, 72.240, 119.3673
16000.000000, 72.323, 128.4234
16250.000000, 72.248, 134.7737
16500.000000, 71.880, 140.5721
16750.000000, 71.276, 146.7748
17000.000000, 70.445, 153.8791
17250.000000, 69.437, 162.4477
17500.000000, 68.363, 172.6090
17750.000000, 67.287, -175.8923
18000.000000, 66.229, -163.2824
18250.000000, 65.212, -149.1719
18500.000000, 64.389, -133.8599
18750.000000, 63.909, -119.2831
19000.000000, 63.625, -107.9027
19250.000000, 63.112, -100.6188
19500.000000, 62.054, -94.9394
19750.000000, 60.583, -88.3621
20000.000000, 59.406, -81.7195
