* Measurement data measured by REW V5.31.3
* Source: Input device not selected, no input selected, L, volume: no control
* Format: 256k Log Swept Sine, 1 sweep at -11.0 dBFS with no timing reference
* Dated: Jun 20, 2025 11:10:19 PM
* REW Settings:
*  C-weighting compensation: Off
*  Target level: 75.0 dB
* Note: ; 
* Measurement: Defiant (Stock Gray M) L
* Smoothing: 1/24 octave
* Frequency Step: 1/48 octave
* Start Frequency: 20.300 Hz
*
* Freq(Hz), SPL(dB), Phase(degrees)
20.299999, 82.058, 170.9667
20.600000, 82.040, 170.7288
20.900000, 82.019, 170.4758
21.200001, 81.999, 170.2192
21.400000, 81.987, 170.0376
21.799999, 81.966, 169.6375
22.000000, 81.954, 169.4219
22.400000, 81.925, 168.9841
22.700001, 81.900, 168.6715
23.000000, 81.874, 168.3843
23.299999, 81.850, 168.1193
23.600000, 81.831, 167.8625
24.000000, 81.812, 167.5039
24.299999, 81.801, 167.2108
24.700001, 81.786, 166.7954
25.000000, 81.771, 166.4838
25.400000, 81.747, 166.0966
25.799999, 81.721, 165.7549
26.200001, 81.694, 165.4450
26.500000, 81.676, 165.2160
26.900000, 81.651, 164.8946
27.200001, 81.631, 164.6374
27.600000, 81.604, 164.2814
28.000000, 81.575, 163.9303
28.500000, 81.539, 163.5272
29.000000, 81.506, 163.1705
29.500000, 81.477, 162.8329
30.000000, 81.447, 162.4740
30.400000, 81.420, 162.1606
30.700001, 81.398, 161.9176
31.100000, 81.368, 161.6003
31.500000, 81.340, 161.3079
32.000000, 81.311, 160.9782
32.500000, 81.287, 160.6596
33.000000, 81.257, 160.3265
33.500000, 81.216, 159.9864
34.000000, 81.171, 159.6532
34.500000, 81.133, 159.3067
35.000000, 81.107, 158.9106
35.500000, 81.085, 158.4762
36.000000, 81.055, 158.0811
36.500000, 81.017, 157.8009
37.000000, 80.975, 157.6246
37.500000, 80.937, 157.4612
38.200001, 80.885, 157.1228
38.700001, 80.848, 156.8195
39.500000, 80.796, 156.3389
40.000000, 80.767, 156.0461
40.599998, 80.722, 155.7012
41.200001, 80.667, 155.3993
41.799999, 80.614, 155.1334
42.500000, 80.567, 154.7755
43.099998, 80.528, 154.4141
43.700001, 80.484, 154.0830
44.400002, 80.435, 153.7667
45.000000, 80.401, 153.4832
45.500000, 80.369, 153.2232
46.200001, 80.319, 152.8968
46.799999, 80.280, 152.6588
47.500000, 80.241, 152.3159
48.200001, 80.188, 151.8932
48.700001, 80.139, 151.6454
49.400002, 80.076, 151.4568
50.000000, 80.038, 151.3423
50.799999, 79.998, 151.0758
51.500000, 79.956, 150.7796
52.200001, 79.911, 150.5188
53.000000, 79.853, 150.2385
53.799999, 79.776, 149.9435
54.500000, 79.713, 149.6935
55.200001, 79.676, 149.4302
56.000000, 79.651, 149.1021
57.000000, 79.591, 148.8034
58.000000, 79.509, 148.6416
59.000000, 79.455, 148.3096
60.000000, 79.407, 147.8368
60.799999, 79.351, 147.5153
61.500000, 79.295, 147.2673
62.200001, 79.242, 147.0255
63.000000, 79.188, 146.7711
64.000000, 79.124, 146.4874
65.000000, 79.054, 146.1904
66.000000, 78.988, 145.8899
67.000000, 78.928, 145.6286
68.000000, 78.865, 145.3719
69.000000, 78.800, 145.0981
70.000000, 78.738, 144.8137
71.000000, 78.666, 144.5525
72.000000, 78.592, 144.3806
73.000000, 78.541, 144.2121
74.000000, 78.493, 143.9635
75.000000, 78.429, 143.7122
76.199997, 78.352, 143.4646
77.500000, 78.279, 143.2079
78.800003, 78.203, 142.9430
80.000000, 78.131, 142.6769
81.199997, 78.054, 142.4408
82.500000, 77.973, 142.2129
83.800003, 77.894, 141.9653
85.000000, 77.824, 141.7552
86.199997, 77.760, 141.5421
87.500000, 77.695, 141.3254
88.500000, 77.642, 141.1977
90.000000, 77.556, 140.9836
91.199997, 77.488, 140.7374
92.500000, 77.418, 140.5108
93.800003, 77.349, 140.3512
95.000000, 77.286, 140.2044
96.199997, 77.222, 140.0559
97.500000, 77.153, 139.9218
98.800003, 77.084, 139.8029
100.000000, 77.023, 139.6824
101.500000, 76.953, 139.5033
103.000000, 76.881, 139.3232
104.400002, 76.812, 139.1467
106.000000, 76.734, 138.9606
107.500000, 76.661, 138.8212
109.000000, 76.589, 138.6736
110.599998, 76.516, 138.5150
112.000000, 76.453, 138.3759
113.800003, 76.371, 138.2592
115.000000, 76.318, 138.1835
117.199997, 76.212, 137.9913
118.000000, 76.177, 137.9441
120.599998, 76.064, 137.7714
122.000000, 76.002, 137.6644
124.099998, 75.913, 137.5217
125.000000, 75.881, 137.4704
126.500000, 75.827, 137.3522
128.000000, 75.766, 137.2159
131.500000, 75.623, 137.0824
132.000000, 75.603, 137.0758
134.000000, 75.528, 137.0484
136.000000, 75.457, 136.9845
138.000000, 75.378, 136.8605
140.000000, 75.302, 136.7399
143.000000, 75.195, 136.6367
145.000000, 75.128, 136.5901
147.500000, 75.041, 136.5109
150.000000, 74.950, 136.4261
152.500000, 74.872, 136.3541
155.000000, 74.797, 136.2959
157.500000, 74.714, 136.2559
160.000000, 74.633, 136.1978
162.500000, 74.560, 136.1585
165.000000, 74.490, 136.1255
167.500000, 74.418, 136.0978
170.000000, 74.348, 136.0651
172.500000, 74.284, 136.0133
175.000000, 74.220, 135.9844
177.500000, 74.153, 135.9888
180.000000, 74.086, 135.9804
182.500000, 74.022, 135.9454
185.000000, 73.955, 135.9032
187.500000, 73.894, 135.8619
190.000000, 73.838, 135.8345
192.500000, 73.776, 135.8376
195.000000, 73.719, 135.8661
197.500000, 73.669, 135.8747
200.000000, 73.620, 135.8580
203.000000, 73.556, 135.8636
206.000000, 73.485, 135.9290
209.000000, 73.420, 135.9447
212.000000, 73.363, 135.9620
214.000000, 73.329, 135.9589
218.000000, 73.262, 135.9603
220.000000, 73.229, 135.9777
224.000000, 73.163, 136.0278
227.000000, 73.112, 136.0689
230.000000, 73.061, 136.0995
233.000000, 73.012, 136.1055
236.000000, 72.963, 136.1017
240.000000, 72.899, 136.1089
243.000000, 72.855, 136.1333
247.000000, 72.803, 136.1633
250.000000, 72.764, 136.1981
254.000000, 72.710, 136.2329
258.000000, 72.656, 136.2568
262.000000, 72.604, 136.3189
265.000000, 72.564, 136.3640
269.000000, 72.511, 136.3954
272.000000, 72.478, 136.4290
276.000000, 72.438, 136.4796
280.000000, 72.397, 136.5651
285.000000, 72.343, 136.6161
290.000000, 72.292, 136.6917
295.000000, 72.248, 136.7345
300.000000, 72.204, 136.7691
304.000000, 72.166, 136.7884
307.000000, 72.142, 136.8249
311.000000, 72.114, 136.9078
315.000000, 72.084, 136.9462
320.000000, 72.044, 136.9550
325.000000, 72.004, 137.0384
330.000000, 71.966, 137.1454
335.000000, 71.936, 137.2252
340.000000, 71.911, 137.3011
345.000000, 71.882, 137.3708
350.000000, 71.849, 137.4782
355.000000, 71.815, 137.5690
360.000000, 71.790, 137.6734
365.000000, 71.773, 137.8251
370.000000, 71.751, 138.0286
375.000000, 71.731, 138.1631
382.000000, 71.720, 138.3437
387.000000, 71.727, 138.4783
395.000000, 71.738, 138.5859
400.000000, 71.739, 138.6059
406.000000, 71.735, 138.6065
412.000000, 71.725, 138.6075
418.000000, 71.710, 138.6422
425.000000, 71.693, 138.7160
431.000000, 71.683, 138.8149
437.000000, 71.675, 138.8943
444.000000, 71.667, 139.0098
450.000000, 71.662, 139.1035
455.000000, 71.659, 139.1694
462.000000, 71.666, 139.2762
468.000000, 71.673, 139.3750
475.000000, 71.679, 139.5032
482.000000, 71.684, 139.6207
487.000000, 71.687, 139.7062
494.000000, 71.698, 139.7957
500.000000, 71.710, 139.8510
508.000000, 71.730, 139.9041
515.000000, 71.741, 139.9758
522.000000, 71.745, 140.0574
530.000000, 71.753, 140.1565
538.000000, 71.763, 140.2474
545.000000, 71.766, 140.3135
552.000000, 71.769, 140.4020
560.000000, 71.776, 140.4925
570.000000, 71.784, 140.6188
580.000000, 71.797, 140.7887
590.000000, 71.815, 140.9727
600.000000, 71.829, 141.2024
608.000000, 71.840, 141.3823
615.000000, 71.848, 141.5105
622.000000, 71.859, 141.6675
630.000000, 71.876, 141.8604
640.000000, 71.895, 142.1197
650.000000, 71.909, 142.3630
660.000000, 71.926, 142.5558
670.000000, 71.945, 142.8062
680.000000, 71.967, 143.1015
690.000000, 71.991, 143.4170
700.000000, 72.015, 143.7085
710.000000, 72.035, 143.9952
720.000000, 72.057, 144.3095
730.000000, 72.082, 144.6427
740.000000, 72.104, 145.0179
750.000000, 72.132, 145.4038
762.000000, 72.173, 145.8626
775.000000, 72.217, 146.3495
788.000000, 72.262, 146.8448
800.000000, 72.307, 147.3498
812.000000, 72.349, 147.8636
825.000000, 72.398, 148.4401
838.000000, 72.456, 149.0321
850.000000, 72.516, 149.5709
862.000000, 72.577, 150.0915
875.000000, 72.641, 150.6871
885.000000, 72.694, 151.1432
900.000000, 72.776, 151.8065
912.000000, 72.850, 152.3591
925.000000, 72.937, 152.9701
938.000000, 73.022, 153.5870
950.000000, 73.103, 154.1381
962.000000, 73.189, 154.6540
975.000000, 73.285, 155.1891
988.000000, 73.383, 155.7096
1000.000000, 73.479, 156.1713
1015.000000, 73.606, 156.7962
1030.000000, 73.733, 157.3976
1044.000000, 73.850, 157.9232
1060.000000, 73.985, 158.4714
1075.000000, 74.118, 158.9658
1090.000000, 74.253, 159.4386
1106.000000, 74.396, 159.8959
1120.000000, 74.521, 160.2739
1138.000000, 74.682, 160.7353
1150.000000, 74.791, 160.9941
1172.000000, 74.990, 161.4173
1180.000000, 75.062, 161.5495
1206.000000, 75.292, 161.9345
1220.000000, 75.416, 162.0958
1241.000000, 75.600, 162.2636
1250.000000, 75.677, 162.3206
1265.000000, 75.799, 162.3905
1280.000000, 75.914, 162.4185
1315.000000, 76.161, 162.3918
1320.000000, 76.194, 162.3809
1340.000000, 76.322, 162.3332
1360.000000, 76.440, 162.2894
1380.000000, 76.546, 162.2443
1400.000000, 76.642, 162.2155
1430.000000, 76.775, 162.2119
1450.000000, 76.857, 162.2347
1475.000000, 76.954, 162.2990
1500.000000, 77.044, 162.3849
1525.000000, 77.131, 162.5113
1550.000000, 77.215, 162.6732
1575.000000, 77.296, 162.8598
1600.000000, 77.376, 163.0589
1625.000000, 77.454, 163.2761
1650.000000, 77.532, 163.5224
1675.000000, 77.611, 163.8044
1700.000000, 77.690, 164.0925
1725.000000, 77.767, 164.3772
1750.000000, 77.844, 164.6661
1775.000000, 77.923, 164.9657
1800.000000, 78.005, 165.2618
1825.000000, 78.086, 165.5566
1850.000000, 78.164, 165.8600
1875.000000, 78.244, 166.1505
1900.000000, 78.327, 166.4260
1925.000000, 78.412, 166.6988
1950.000000, 78.496, 166.9579
1975.000000, 78.583, 167.1996
2000.000000, 78.669, 167.4162
2030.000000, 78.766, 167.6489
2060.000000, 78.865, 167.8476
2090.000000, 78.967, 168.0306
2120.000000, 79.071, 168.1836
2140.000000, 79.138, 168.2576
2180.000000, 79.267, 168.3757
2200.000000, 79.329, 168.4142
2240.000000, 79.452, 168.4193
2270.000000, 79.541, 168.3724
2300.000000, 79.625, 168.2789
2330.000000, 79.705, 168.1451
2360.000000, 79.780, 167.9894
2400.000000, 79.868, 167.7206
2430.000000, 79.927, 167.4724
2470.000000, 79.995, 167.0935
2500.000000, 80.035, 166.7788
2540.000000, 80.076, 166.3212
2580.000000, 80.102, 165.8404
2620.000000, 80.111, 165.3490
2650.000000, 80.108, 164.9716
2690.000000, 80.092, 164.4694
2720.000000, 80.070, 164.1104
2760.000000, 80.026, 163.6500
2800.000000, 79.970, 163.2153
2850.000000, 79.885, 162.7104
2900.000000, 79.781, 162.2758
2950.000000, 79.663, 161.9275
3000.000000, 79.539, 161.6642
3040.000000, 79.430, 161.5046
3070.000000, 79.344, 161.4282
3110.000000, 79.227, 161.3862
3150.000000, 79.110, 161.4004
3200.000000, 78.963, 161.4987
3250.000000, 78.813, 161.6617
3300.000000, 78.665, 161.9088
3350.000000, 78.526, 162.2129
3400.000000, 78.393, 162.5508
3450.000000, 78.264, 162.9279
3500.000000, 78.140, 163.3452
3550.000000, 78.024, 163.7645
3600.000000, 77.915, 164.1700
3650.000000, 77.811, 164.5829
3700.000000, 77.710, 164.9906
3750.000000, 77.611, 165.3456
3820.000000, 77.481, 165.7842
3870.000000, 77.391, 166.0583
3950.000000, 77.241, 166.4800
4000.000000, 77.146, 166.7667
4060.000000, 77.034, 167.1537
4120.000000, 76.947, 167.6190
4180.000000, 76.908, 168.0634
4250.000000, 76.935, 168.1204
4310.000000, 76.966, 167.4288
4370.000000, 76.940, 166.2203
4440.000000, 76.824, 164.3772
4500.000000, 76.622, 162.5084
4550.000000, 76.358, 161.0055
4620.000000, 75.863, 159.5139
4680.000000, 75.378, 159.0906
4750.000000, 74.831, 159.5782
4820.000000, 74.369, 160.7635
4870.000000, 74.101, 161.8060
4940.000000, 73.798, 163.2668
5000.000000, 73.584, 164.3766
5080.000000, 73.332, 165.6332
5150.000000, 73.130, 166.5521
5220.000000, 72.940, 167.3595
5300.000000, 72.729, 168.2061
5380.000000, 72.519, 168.9803
5450.000000, 72.345, 169.6338
5520.000000, 72.177, 170.3014
5600.000000, 71.999, 171.0973
5700.000000, 71.801, 172.0766
5800.000000, 71.630, 173.0214
5900.000000, 71.483, 173.9186
6000.000000, 71.362, 174.6534
6080.000000, 71.274, 175.1599
6150.000000, 71.196, 175.5841
6220.000000, 71.110, 176.0546
6300.000000, 71.003, 176.7539
6400.000000, 70.875, 177.9184
6500.000000, 70.787, 179.4905
6600.000000, 70.785, -178.5078
6700.000000, 70.895, -176.3582
6800.000000, 71.127, -174.2568
6900.000000, 71.468, -172.4078
7000.000000, 71.906, -171.0435
7100.000000, 72.413, -170.3633
7200.000000, 72.962, -170.4401
7300.000000, 73.518, -171.2645
7400.000000, 74.043, -172.8083
7500.000000, 74.505, -174.9590
7620.000000, 74.943, -178.1788
7750.000000, 75.240, 177.9582
7880.000000, 75.354, 174.2733
8000.000000, 75.328, 171.4158
8120.000000, 75.230, 169.3250
8250.000000, 75.101, 167.9315
8380.000000, 74.993, 167.2842
8500.000000, 74.936, 167.1933
8620.000000, 74.932, 167.4070
8750.000000, 75.003, 167.7570
8850.000000, 75.104, 167.9535
9000.000000, 75.300, 167.9223
9120.000000, 75.472, 167.4777
9250.000000, 75.636, 166.5285
9380.000000, 75.734, 165.1603
9500.000000, 75.732, 163.7407
9620.000000, 75.632, 162.4276
9750.000000, 75.423, 161.4592
9880.000000, 75.153, 161.2322
10000.000000, 74.893, 161.7152
10150.000000, 74.608, 163.1426
10300.000000, 74.412, 165.2275
10440.000000, 74.329, 167.4040
10600.000000, 74.329, 169.7065
10750.000000, 74.381, 171.5095
10900.000000, 74.447, 172.9878
11060.000000, 74.496, 174.2600
11200.000000, 74.508, 175.2707
11380.000000, 74.488, 176.6757
11500.000000, 74.464, 177.7397
11720.000000, 74.419, -179.9685
11800.000000, 74.414, -178.9967
12060.000000, 74.508, -175.6862
12200.000000, 74.624, -174.1166
12410.000000, 74.870, -172.3833
12500.000000, 74.992, -171.9388
12650.000000, 75.195, -171.6863
12800.000000, 75.365, -172.0872
13150.000000, 75.478, -175.0708
13200.000000, 75.447, -175.6321
13400.000000, 75.181, -177.8400
13600.000000, 74.714, -179.4769
13800.000000, 74.122, 179.9524
14000.000000, 73.506, -179.4794
14300.000000, 72.663, -177.2388
14500.000000, 72.163, -175.1526
14750.000000, 71.653, -172.0289
15000.000000, 71.319, -168.6495
15250.000000, 71.177, -165.6429
15500.000000, 71.229, -163.8499
15750.000000, 71.372, -164.3271
16000.000000, 71.350, -167.8484
16250.000000, 70.748, -173.3112
16500.000000, 69.322, -176.5078
16750.000000, 67.634, -172.0135
17000.000000, 66.970, -162.9412
17250.000000, 67.197, -160.4890
17500.000000, 66.863, -165.2129
17750.000000, 65.341, -169.8090
18000.000000, 62.890, -167.0851
18250.000000, 60.779, -151.0561
18500.000000, 60.724, -135.3681
18750.000000, 61.049, -135.3483
19000.000000, 60.207, -140.1660
19250.000000, 58.557, -143.0626
19500.000000, 56.576, -144.3101
19750.000000, 54.538, -145.0099
