* Measurement data measured by REW V5.31.3
* Source: Input device not selected, no input selected, L, volume: no control
* Format: 256k Log Swept Sine, 1 sweep at -11.0 dBFS with no timing reference
* Dated: Jun 20, 2025 11:11:47 PM
* REW Settings:
*  C-weighting compensation: Off
*  Target level: 75.0 dB
* Note: ; 
* Measurement: Defiant (Final E M) L
* Smoothing: 1/24 octave
* Frequency Step: 1/48 octave
* Start Frequency: 20.300 Hz
*
* Freq(Hz), SPL(dB), Phase(degrees)
20.299999, 81.750, 170.6710
20.600000, 81.736, 170.4615
20.900000, 81.722, 170.1831
21.200001, 81.712, 169.8414
21.400000, 81.706, 169.5826
21.799999, 81.689, 169.0330
22.000000, 81.677, 168.7696
22.400000, 81.643, 168.3248
22.700001, 81.614, 168.0784
23.000000, 81.586, 167.8851
23.299999, 81.562, 167.6984
23.600000, 81.540, 167.4690
24.000000, 81.513, 167.0523
24.299999, 81.491, 166.6677
24.700001, 81.459, 166.1283
25.000000, 81.439, 165.7551
25.400000, 81.423, 165.3360
25.799999, 81.421, 164.9881
26.200001, 81.425, 164.6631
26.500000, 81.422, 164.4172
26.900000, 81.403, 164.0961
27.200001, 81.376, 163.8761
27.600000, 81.333, 163.6200
28.000000, 81.293, 163.3851
28.500000, 81.253, 163.0573
29.000000, 81.223, 162.6570
29.500000, 81.191, 162.2265
30.000000, 81.156, 161.8213
30.400000, 81.129, 161.5166
30.700001, 81.108, 161.2886
31.100000, 81.080, 160.9799
31.500000, 81.049, 160.6806
32.000000, 81.012, 160.3558
32.500000, 80.982, 160.0913
33.000000, 80.963, 159.8284
33.500000, 80.946, 159.4968
34.000000, 80.920, 159.0853
34.500000, 80.881, 158.6476
35.000000, 80.834, 158.2462
35.500000, 80.788, 157.9080
36.000000, 80.747, 157.6210
36.500000, 80.710, 157.3602
37.000000, 80.676, 157.1068
37.500000, 80.641, 156.8509
38.200001, 80.592, 156.4795
38.700001, 80.558, 156.1995
39.500000, 80.509, 155.7122
40.000000, 80.480, 155.3849
40.599998, 80.439, 154.9932
41.200001, 80.392, 154.6329
41.799999, 80.339, 154.3154
42.500000, 80.274, 153.9880
43.099998, 80.222, 153.7329
43.700001, 80.178, 153.4855
44.400002, 80.135, 153.1773
45.000000, 80.097, 152.8907
45.500000, 80.060, 152.6486
46.200001, 80.005, 152.3136
46.799999, 79.960, 152.0211
47.500000, 79.912, 151.6788
48.200001, 79.866, 151.3573
48.700001, 79.835, 151.1368
49.400002, 79.789, 150.8253
50.000000, 79.746, 150.5655
50.799999, 79.687, 150.2478
51.500000, 79.635, 149.9795
52.200001, 79.584, 149.7232
53.000000, 79.534, 149.4756
53.799999, 79.496, 149.2388
54.500000, 79.455, 148.9892
55.200001, 79.394, 148.6938
56.000000, 79.312, 148.3227
57.000000, 79.227, 147.9173
58.000000, 79.189, 147.6349
59.000000, 79.153, 147.2837
60.000000, 79.071, 146.9375
60.799999, 78.995, 146.7611
61.500000, 78.937, 146.5775
62.200001, 78.883, 146.3160
63.000000, 78.821, 146.0100
64.000000, 78.747, 145.7541
65.000000, 78.675, 145.5686
66.000000, 78.612, 145.2625
67.000000, 78.550, 144.8974
68.000000, 78.482, 144.6654
69.000000, 78.413, 144.4081
70.000000, 78.340, 144.2015
71.000000, 78.288, 144.3211
72.000000, 78.252, 144.2885
73.000000, 78.177, 143.7744
74.000000, 78.084, 143.2496
75.000000, 78.016, 142.9901
76.199997, 77.950, 142.8287
77.500000, 77.879, 142.5600
78.800003, 77.795, 142.3432
80.000000, 77.715, 142.1691
81.199997, 77.639, 141.9593
82.500000, 77.578, 141.6689
83.800003, 77.511, 141.4675
85.000000, 77.436, 141.2390
86.199997, 77.358, 140.8461
87.500000, 77.290, 140.6446
88.500000, 77.240, 140.6062
90.000000, 77.148, 140.4175
91.199997, 77.073, 140.2042
92.500000, 77.001, 139.9752
93.800003, 76.939, 139.8582
95.000000, 76.874, 139.8236
96.199997, 76.799, 139.7112
97.500000, 76.721, 139.5188
98.800003, 76.651, 139.3620
100.000000, 76.589, 139.2146
101.500000, 76.506, 139.0467
103.000000, 76.424, 138.8700
104.400002, 76.352, 138.7432
106.000000, 76.274, 138.6028
107.500000, 76.197, 138.5004
109.000000, 76.117, 138.3831
110.599998, 76.034, 138.2247
112.000000, 75.960, 138.1278
113.800003, 75.877, 137.9977
115.000000, 75.822, 137.9260
117.199997, 75.706, 137.9549
118.000000, 75.658, 137.9276
120.599998, 75.526, 137.6573
122.000000, 75.461, 137.5814
124.099998, 75.349, 137.5736
125.000000, 75.302, 137.5864
126.500000, 75.227, 137.5619
128.000000, 75.148, 137.4880
131.500000, 74.966, 137.4498
132.000000, 74.941, 137.4822
134.000000, 74.840, 137.6564
136.000000, 74.734, 137.8759
138.000000, 74.629, 138.1715
140.000000, 74.533, 138.5858
143.000000, 74.431, 139.4686
145.000000, 74.418, 140.1274
147.500000, 74.468, 140.8240
150.000000, 74.558, 141.0140
152.500000, 74.636, 140.6690
155.000000, 74.654, 140.0272
157.500000, 74.624, 139.4081
160.000000, 74.567, 138.8029
162.500000, 74.488, 138.3235
165.000000, 74.407, 137.9382
167.500000, 74.327, 137.6439
170.000000, 74.245, 137.4569
172.500000, 74.167, 137.2610
175.000000, 74.094, 137.1222
177.500000, 74.016, 137.0661
180.000000, 73.941, 136.9686
182.500000, 73.871, 136.8505
185.000000, 73.804, 136.7647
187.500000, 73.740, 136.6992
190.000000, 73.677, 136.6929
192.500000, 73.613, 136.6904
195.000000, 73.556, 136.6743
197.500000, 73.501, 136.6448
200.000000, 73.443, 136.5865
203.000000, 73.370, 136.5285
206.000000, 73.296, 136.4899
209.000000, 73.231, 136.5252
212.000000, 73.176, 136.6004
214.000000, 73.137, 136.6387
218.000000, 73.054, 136.6581
220.000000, 73.015, 136.6581
224.000000, 72.947, 136.6667
227.000000, 72.890, 136.6420
230.000000, 72.833, 136.6500
233.000000, 72.777, 136.7047
236.000000, 72.727, 136.7457
240.000000, 72.667, 136.7685
243.000000, 72.622, 136.7713
247.000000, 72.564, 136.8187
250.000000, 72.522, 136.8598
254.000000, 72.468, 136.9061
258.000000, 72.415, 137.0048
262.000000, 72.365, 137.0792
265.000000, 72.325, 137.0909
269.000000, 72.270, 137.1494
272.000000, 72.235, 137.2214
276.000000, 72.196, 137.2749
280.000000, 72.160, 137.2757
285.000000, 72.114, 137.3020
290.000000, 72.063, 137.3323
295.000000, 72.018, 137.4347
300.000000, 71.972, 137.5151
304.000000, 71.936, 137.5984
307.000000, 71.911, 137.6625
311.000000, 71.879, 137.7409
315.000000, 71.850, 137.7997
320.000000, 71.812, 137.8757
325.000000, 71.771, 137.9688
330.000000, 71.738, 138.0602
335.000000, 71.710, 138.1183
340.000000, 71.685, 138.1516
345.000000, 71.658, 138.2214
350.000000, 71.635, 138.2633
355.000000, 71.612, 138.3207
360.000000, 71.583, 138.3796
365.000000, 71.554, 138.4546
370.000000, 71.529, 138.5980
375.000000, 71.508, 138.7462
382.000000, 71.475, 138.8823
387.000000, 71.454, 138.9806
395.000000, 71.420, 139.1851
400.000000, 71.398, 139.3443
406.000000, 71.373, 139.5629
412.000000, 71.354, 139.8219
418.000000, 71.344, 140.0968
425.000000, 71.348, 140.4455
431.000000, 71.363, 140.6716
437.000000, 71.389, 140.8233
444.000000, 71.421, 140.9976
450.000000, 71.437, 141.0916
455.000000, 71.447, 141.1365
462.000000, 71.462, 141.1826
468.000000, 71.473, 141.2607
475.000000, 71.483, 141.3321
482.000000, 71.495, 141.4055
487.000000, 71.506, 141.4280
494.000000, 71.522, 141.4413
500.000000, 71.535, 141.4884
508.000000, 71.546, 141.5818
515.000000, 71.551, 141.6035
522.000000, 71.555, 141.6620
530.000000, 71.560, 141.8075
538.000000, 71.568, 141.8638
545.000000, 71.581, 141.9289
552.000000, 71.588, 142.0060
560.000000, 71.588, 142.1410
570.000000, 71.596, 142.3384
580.000000, 71.613, 142.5238
590.000000, 71.630, 142.7333
600.000000, 71.643, 142.8920
608.000000, 71.657, 143.0546
615.000000, 71.668, 143.2202
622.000000, 71.678, 143.4046
630.000000, 71.693, 143.6213
640.000000, 71.710, 143.8609
650.000000, 71.724, 144.1618
660.000000, 71.745, 144.4780
670.000000, 71.768, 144.7967
680.000000, 71.788, 145.0969
690.000000, 71.814, 145.3859
700.000000, 71.841, 145.6965
710.000000, 71.861, 146.0329
720.000000, 71.886, 146.3991
730.000000, 71.921, 146.7850
740.000000, 71.952, 147.1649
750.000000, 71.977, 147.5573
762.000000, 72.015, 148.0231
775.000000, 72.065, 148.5520
788.000000, 72.118, 149.0893
800.000000, 72.165, 149.6107
812.000000, 72.213, 150.1459
825.000000, 72.266, 150.7446
838.000000, 72.323, 151.3394
850.000000, 72.382, 151.9229
862.000000, 72.444, 152.5100
875.000000, 72.516, 153.1147
885.000000, 72.574, 153.6021
900.000000, 72.663, 154.3302
912.000000, 72.738, 154.8904
925.000000, 72.822, 155.4966
938.000000, 72.912, 156.1038
950.000000, 72.997, 156.6625
962.000000, 73.085, 157.2129
975.000000, 73.181, 157.7971
988.000000, 73.279, 158.3738
1000.000000, 73.373, 158.8701
1015.000000, 73.498, 159.4819
1030.000000, 73.626, 160.0899
1044.000000, 73.747, 160.6322
1060.000000, 73.887, 161.1741
1075.000000, 74.021, 161.6546
1090.000000, 74.153, 162.1325
1106.000000, 74.292, 162.6114
1120.000000, 74.416, 163.0145
1138.000000, 74.573, 163.4971
1150.000000, 74.681, 163.8039
1172.000000, 74.879, 164.2950
1180.000000, 74.950, 164.4500
1206.000000, 75.179, 164.8947
1220.000000, 75.299, 165.0967
1241.000000, 75.476, 165.3690
1250.000000, 75.549, 165.4594
1265.000000, 75.670, 165.5729
1280.000000, 75.786, 165.6559
1315.000000, 76.044, 165.7912
1320.000000, 76.079, 165.8003
1340.000000, 76.207, 165.8416
1360.000000, 76.321, 165.9155
1380.000000, 76.425, 165.9479
1400.000000, 76.528, 165.9889
1430.000000, 76.666, 166.1186
1450.000000, 76.754, 166.2206
1475.000000, 76.859, 166.3770
1500.000000, 76.959, 166.5718
1525.000000, 77.055, 166.7981
1550.000000, 77.149, 167.0463
1575.000000, 77.238, 167.3199
1600.000000, 77.328, 167.6046
1625.000000, 77.417, 167.9164
1650.000000, 77.501, 168.2407
1675.000000, 77.584, 168.5784
1700.000000, 77.673, 168.9124
1725.000000, 77.762, 169.2784
1750.000000, 77.848, 169.6500
1775.000000, 77.937, 170.0110
1800.000000, 78.027, 170.3771
1825.000000, 78.116, 170.7520
1850.000000, 78.208, 171.1144
1875.000000, 78.300, 171.4568
1900.000000, 78.394, 171.7758
1925.000000, 78.485, 172.0737
1950.000000, 78.578, 172.3713
1975.000000, 78.673, 172.6634
2000.000000, 78.768, 172.9351
2030.000000, 78.881, 173.2448
2060.000000, 78.991, 173.5150
2090.000000, 79.100, 173.7516
2120.000000, 79.209, 173.9413
2140.000000, 79.281, 174.0366
2180.000000, 79.421, 174.1966
2200.000000, 79.488, 174.2548
2240.000000, 79.620, 174.3063
2270.000000, 79.712, 174.3153
2300.000000, 79.798, 174.2800
2330.000000, 79.880, 174.2085
2360.000000, 79.956, 174.1066
2400.000000, 80.046, 173.9197
2430.000000, 80.106, 173.7485
2470.000000, 80.171, 173.4940
2500.000000, 80.208, 173.2872
2540.000000, 80.247, 173.0053
2580.000000, 80.270, 172.7471
2620.000000, 80.278, 172.5233
2650.000000, 80.278, 172.3832
2690.000000, 80.270, 172.2558
2720.000000, 80.263, 172.2116
2760.000000, 80.260, 172.1955
2800.000000, 80.265, 172.1483
2850.000000, 80.273, 171.9622
2900.000000, 80.263, 171.6338
2950.000000, 80.228, 171.2463
3000.000000, 80.165, 170.9183
3040.000000, 80.099, 170.7264
3070.000000, 80.044, 170.6397
3110.000000, 79.966, 170.5770
3150.000000, 79.887, 170.5572
3200.000000, 79.784, 170.6125
3250.000000, 79.683, 170.7636
3300.000000, 79.584, 171.0063
3350.000000, 79.490, 171.3364
3400.000000, 79.405, 171.6993
3450.000000, 79.332, 172.0611
3500.000000, 79.270, 172.4509
3550.000000, 79.224, 172.8490
3600.000000, 79.191, 173.1876
3650.000000, 79.169, 173.4186
3700.000000, 79.152, 173.5332
3750.000000, 79.133, 173.5295
3820.000000, 79.090, 173.3452
3870.000000, 79.048, 173.1391
3950.000000, 78.965, 172.7348
4000.000000, 78.908, 172.4513
4060.000000, 78.831, 172.0693
4120.000000, 78.754, 171.6552
4180.000000, 78.691, 171.1932
4250.000000, 78.640, 170.2892
4310.000000, 78.563, 168.9782
4370.000000, 78.413, 167.4322
4440.000000, 78.150, 165.4984
4500.000000, 77.826, 163.8268
4550.000000, 77.477, 162.7095
4620.000000, 76.904, 161.9954
4680.000000, 76.401, 162.3294
4750.000000, 75.882, 163.6286
4820.000000, 75.486, 165.4406
4870.000000, 75.277, 166.8018
4940.000000, 75.061, 168.5363
5000.000000, 74.922, 169.7748
5080.000000, 74.776, 171.0500
5150.000000, 74.663, 171.9049
5220.000000, 74.556, 172.5679
5300.000000, 74.440, 173.1743
5380.000000, 74.322, 173.6492
5450.000000, 74.227, 173.9790
5520.000000, 74.146, 174.2512
5600.000000, 74.067, 174.4141
5700.000000, 73.982, 174.3515
5800.000000, 73.899, 173.9182
5900.000000, 73.775, 173.1225
6000.000000, 73.589, 172.0946
6080.000000, 73.381, 171.3193
6150.000000, 73.149, 170.8237
6220.000000, 72.878, 170.6674
6300.000000, 72.555, 171.0771
6400.000000, 72.196, 172.5305
6500.000000, 71.965, 174.8701
6600.000000, 71.921, 177.6424
6700.000000, 72.076, -179.7145
6800.000000, 72.400, -177.7952
6900.000000, 72.827, -176.9545
7000.000000, 73.280, -177.2806
7100.000000, 73.683, -178.7043
7200.000000, 73.983, 179.0627
7300.000000, 74.145, 176.3565
7400.000000, 74.159, 173.6375
7500.000000, 74.052, 171.3037
7620.000000, 73.808, 169.2897
7750.000000, 73.473, 168.2807
7880.000000, 73.149, 168.4202
8000.000000, 72.913, 169.3614
8120.000000, 72.750, 170.8615
8250.000000, 72.666, 172.8986
8380.000000, 72.687, 175.1167
8500.000000, 72.795, 177.1589
8620.000000, 72.976, 179.0889
8750.000000, 73.242, -179.1085
8850.000000, 73.477, -178.0359
9000.000000, 73.856, -177.0030
9120.000000, 74.148, -176.6499
9250.000000, 74.424, -176.6340
9380.000000, 74.641, -176.8315
9500.000000, 74.783, -176.9906
9620.000000, 74.887, -176.9700
9750.000000, 74.986, -176.6739
9880.000000, 75.104, -176.1260
10000.000000, 75.249, -175.5478
10150.000000, 75.482, -175.0559
10300.000000, 75.738, -175.1401
10440.000000, 75.936, -175.7861
10600.000000, 76.053, -176.9600
10750.000000, 76.035, -178.0523
10900.000000, 75.912, -178.6908
11060.000000, 75.725, -178.6498
11200.000000, 75.567, -177.9564
11380.000000, 75.431, -176.3553
11500.000000, 75.410, -175.0585
11720.000000, 75.522, -172.8070
11800.000000, 75.609, -172.1444
12060.000000, 76.020, -171.2498
12200.000000, 76.263, -171.8611
12410.000000, 76.538, -174.2552
12500.000000, 76.593, -175.7202
12650.000000, 76.575, -178.5236
12800.000000, 76.411, 178.4871
13150.000000, 75.537, 172.1297
13200.000000, 75.366, 171.3644
13400.000000, 74.576, 168.7668
13600.000000, 73.629, 167.1056
13800.000000, 72.566, 167.0694
14000.000000, 71.570, 169.1866
14300.000000, 70.670, 173.3248
14500.000000, 70.324, 173.9650
14750.000000, 69.736, 172.3272
15000.000000, 68.762, 169.5969
15250.000000, 67.381, 167.5322
15500.000000, 65.691, 167.3309
15750.000000, 63.819, 169.6991
16000.000000, 61.868, 174.9143
16250.000000, 59.939, -176.5728
16500.000000, 58.289, -163.2880
16750.000000, 57.565, -145.9943
17000.000000, 57.989, -133.5670
17250.000000, 58.331, -130.2177
17500.000000, 57.735, -129.4341
17750.000000, 56.373, -125.3610
18000.000000, 54.794, -113.5379
18250.000000, 54.439, -90.8137
18500.000000, 56.155, -75.6600
18750.000000, 57.611, -78.2905
19000.000000, 57.877, -86.3462
19250.000000, 57.510, -95.5907
19500.000000, 56.752, -107.9059
19750.000000, 55.450, -123.7216
