* Measurement data measured by REW V5.31.3
* Source: Input device not selected, no input selected, L, volume: no control
* Format: 256k Log Swept Sine, 1 sweep at -11.0 dBFS with no timing reference
* Dated: Jun 20, 2025 11:12:57 PM
* REW Settings:
*  C-weighting compensation: Off
*  Target level: 75.0 dB
* Note: ; 
* Measurement: Defiant (Velvet Wide M) L
* Smoothing: 1/24 octave
* Frequency Step: 1/48 octave
* Start Frequency: 20.300 Hz
*
* Freq(Hz), SPL(dB), Phase(degrees)
20.299999, 81.625, 169.0737
20.600000, 81.543, 168.9562
20.900000, 81.455, 169.0112
21.200001, 81.397, 169.2071
21.400000, 81.383, 169.3517
21.799999, 81.424, 169.4685
22.000000, 81.473, 169.3629
22.400000, 81.596, 168.7556
22.700001, 81.676, 168.0358
23.000000, 81.721, 167.2652
23.299999, 81.722, 166.6404
23.600000, 81.690, 166.3144
24.000000, 81.636, 166.3797
24.299999, 81.619, 166.6252
24.700001, 81.637, 166.7596
25.000000, 81.661, 166.4778
25.400000, 81.655, 165.5870
25.799999, 81.580, 164.5063
26.200001, 81.465, 163.7933
26.500000, 81.400, 163.6769
26.900000, 81.393, 163.9032
27.200001, 81.446, 164.0621
27.600000, 81.535, 163.9095
28.000000, 81.563, 163.3212
28.500000, 81.460, 162.4942
29.000000, 81.296, 162.1491
29.500000, 81.220, 162.1294
30.000000, 81.251, 161.7820
30.400000, 81.281, 161.1729
30.700001, 81.273, 160.7162
31.100000, 81.226, 160.3949
31.500000, 81.179, 160.5388
32.000000, 81.178, 161.0669
32.500000, 81.225, 161.3521
33.000000, 81.236, 161.0918
33.500000, 81.158, 160.4685
34.000000, 81.010, 159.7559
34.500000, 80.849, 159.0847
35.000000, 80.737, 158.4986
35.500000, 80.711, 158.0111
36.000000, 80.764, 157.5778
36.500000, 80.838, 157.1597
37.000000, 80.869, 156.8272
37.500000, 80.844, 156.6504
38.200001, 80.770, 156.3441
38.700001, 80.690, 155.7886
39.500000, 80.437, 154.9700
40.000000, 80.261, 155.2205
40.599998, 80.195, 155.8983
41.200001, 80.294, 155.5546
41.799999, 80.379, 153.8356
42.500000, 80.337, 151.8034
43.099998, 80.268, 151.3440
43.700001, 80.250, 151.8453
44.400002, 80.233, 152.4621
45.000000, 80.168, 152.5703
45.500000, 80.111, 152.3385
46.200001, 80.081, 151.5616
46.799999, 80.086, 150.7132
47.500000, 80.061, 150.0255
48.200001, 79.969, 149.9566
48.700001, 79.875, 150.2079
49.400002, 79.762, 150.6250
50.000000, 79.734, 150.6165
50.799999, 79.770, 149.7237
51.500000, 79.758, 148.6533
52.200001, 79.647, 148.1972
53.000000, 79.455, 148.6902
53.799999, 79.299, 149.4513
54.500000, 79.228, 149.6477
55.200001, 79.197, 149.3874
56.000000, 79.184, 148.8708
57.000000, 79.186, 147.9076
58.000000, 79.134, 146.9592
59.000000, 79.066, 147.1945
60.000000, 79.051, 147.6807
60.799999, 79.005, 147.4171
61.500000, 78.934, 146.9874
62.200001, 78.869, 146.5652
63.000000, 78.805, 145.9025
64.000000, 78.699, 144.8859
65.000000, 78.632, 144.3733
66.000000, 78.597, 144.0043
67.000000, 78.485, 143.3586
68.000000, 78.403, 143.0101
69.000000, 78.399, 143.0836
70.000000, 78.325, 143.3204
71.000000, 78.225, 143.3433
72.000000, 78.196, 143.1116
73.000000, 78.176, 143.1362
74.000000, 78.096, 143.2328
75.000000, 77.997, 142.9025
76.199997, 77.930, 142.1692
77.500000, 77.872, 141.6155
78.800003, 77.767, 141.2029
80.000000, 77.649, 140.8618
81.199997, 77.578, 140.6949
82.500000, 77.499, 140.7330
83.800003, 77.398, 140.6208
85.000000, 77.314, 140.3071
86.199997, 77.263, 140.1137
87.500000, 77.217, 139.8590
88.500000, 77.174, 139.6333
90.000000, 77.080, 139.4015
91.199997, 76.986, 139.3071
92.500000, 76.886, 139.0923
93.800003, 76.831, 138.9101
95.000000, 76.799, 138.8592
96.199997, 76.741, 138.7395
97.500000, 76.652, 138.5762
98.800003, 76.567, 138.5314
100.000000, 76.502, 138.3347
101.500000, 76.426, 138.0727
103.000000, 76.349, 138.0475
104.400002, 76.272, 137.9700
106.000000, 76.173, 137.7876
107.500000, 76.092, 137.6001
109.000000, 76.021, 137.5070
110.599998, 75.937, 137.4176
112.000000, 75.866, 137.1917
113.800003, 75.763, 136.9914
115.000000, 75.697, 136.9811
117.199997, 75.617, 136.6800
118.000000, 75.586, 136.5904
120.599998, 75.482, 136.4430
122.000000, 75.420, 136.4189
124.099998, 75.316, 136.4340
125.000000, 75.271, 136.3918
126.500000, 75.202, 136.2245
128.000000, 75.139, 136.0530
131.500000, 74.995, 135.8246
132.000000, 74.977, 135.8021
134.000000, 74.906, 135.7428
136.000000, 74.833, 135.6342
138.000000, 74.752, 135.5782
140.000000, 74.670, 135.5349
143.000000, 74.552, 135.4826
145.000000, 74.475, 135.4903
147.500000, 74.387, 135.4551
150.000000, 74.304, 135.4468
152.500000, 74.220, 135.3035
155.000000, 74.141, 135.1613
157.500000, 74.055, 135.1915
160.000000, 73.976, 135.1406
162.500000, 73.894, 135.1450
165.000000, 73.816, 135.1718
167.500000, 73.737, 135.1726
170.000000, 73.664, 135.1614
172.500000, 73.592, 135.0921
175.000000, 73.512, 135.0148
177.500000, 73.438, 134.9791
180.000000, 73.379, 134.9572
182.500000, 73.328, 134.9948
185.000000, 73.271, 135.0371
187.500000, 73.201, 134.9772
190.000000, 73.127, 134.9656
192.500000, 73.063, 135.0073
195.000000, 73.007, 135.0065
197.500000, 72.954, 134.9955
200.000000, 72.895, 135.0039
203.000000, 72.827, 135.0405
206.000000, 72.760, 135.0663
209.000000, 72.693, 135.0970
212.000000, 72.632, 135.0698
214.000000, 72.596, 135.0366
218.000000, 72.534, 135.0435
220.000000, 72.500, 135.0523
224.000000, 72.430, 135.0622
227.000000, 72.384, 135.0900
230.000000, 72.342, 135.1500
233.000000, 72.294, 135.2459
236.000000, 72.239, 135.3063
240.000000, 72.167, 135.3217
243.000000, 72.122, 135.3714
247.000000, 72.071, 135.4305
250.000000, 72.034, 135.4476
254.000000, 71.980, 135.4954
258.000000, 71.921, 135.5589
262.000000, 71.868, 135.5468
265.000000, 71.836, 135.5736
269.000000, 71.787, 135.6480
272.000000, 71.751, 135.7127
276.000000, 71.714, 135.7892
280.000000, 71.677, 135.8293
285.000000, 71.628, 135.8583
290.000000, 71.578, 135.9104
295.000000, 71.532, 135.9953
300.000000, 71.482, 136.0742
304.000000, 71.445, 136.0947
307.000000, 71.422, 136.1390
311.000000, 71.393, 136.2237
315.000000, 71.363, 136.3178
320.000000, 71.329, 136.4156
325.000000, 71.291, 136.4572
330.000000, 71.260, 136.5178
335.000000, 71.232, 136.5373
340.000000, 71.203, 136.5816
345.000000, 71.175, 136.6411
350.000000, 71.149, 136.7327
355.000000, 71.125, 136.8128
360.000000, 71.100, 136.8884
365.000000, 71.076, 136.9775
370.000000, 71.063, 137.0693
375.000000, 71.047, 137.1462
382.000000, 71.026, 137.2681
387.000000, 71.007, 137.3532
395.000000, 70.982, 137.5190
400.000000, 70.971, 137.6105
406.000000, 70.955, 137.7112
412.000000, 70.944, 137.7928
418.000000, 70.940, 137.8857
425.000000, 70.932, 138.0132
431.000000, 70.929, 138.1310
437.000000, 70.930, 138.2190
444.000000, 70.924, 138.3477
450.000000, 70.920, 138.4805
455.000000, 70.923, 138.6126
462.000000, 70.930, 138.7440
468.000000, 70.937, 138.8509
475.000000, 70.953, 138.9933
482.000000, 70.975, 139.1205
487.000000, 70.988, 139.1992
494.000000, 71.006, 139.2935
500.000000, 71.022, 139.3421
508.000000, 71.039, 139.3922
515.000000, 71.051, 139.4498
522.000000, 71.063, 139.5001
530.000000, 71.075, 139.5732
538.000000, 71.079, 139.6674
545.000000, 71.083, 139.7724
552.000000, 71.092, 139.8872
560.000000, 71.103, 139.9961
570.000000, 71.116, 140.1187
580.000000, 71.130, 140.2847
590.000000, 71.147, 140.4677
600.000000, 71.161, 140.5972
608.000000, 71.172, 140.7541
615.000000, 71.185, 140.9240
622.000000, 71.195, 141.1046
630.000000, 71.206, 141.3026
640.000000, 71.229, 141.5078
650.000000, 71.254, 141.7438
660.000000, 71.280, 142.0103
670.000000, 71.307, 142.2997
680.000000, 71.327, 142.5478
690.000000, 71.347, 142.8306
700.000000, 71.369, 143.1371
710.000000, 71.398, 143.4751
720.000000, 71.426, 143.7936
730.000000, 71.454, 144.1073
740.000000, 71.483, 144.4432
750.000000, 71.515, 144.7955
762.000000, 71.557, 145.2163
775.000000, 71.603, 145.6746
788.000000, 71.652, 146.1711
800.000000, 71.699, 146.6763
812.000000, 71.751, 147.1400
825.000000, 71.810, 147.6576
838.000000, 71.868, 148.2050
850.000000, 71.926, 148.7707
862.000000, 71.987, 149.3333
875.000000, 72.060, 149.9026
885.000000, 72.121, 150.3094
900.000000, 72.209, 150.9717
912.000000, 72.277, 151.5136
925.000000, 72.360, 152.0867
938.000000, 72.449, 152.6730
950.000000, 72.533, 153.1779
962.000000, 72.621, 153.6599
975.000000, 72.721, 154.1482
988.000000, 72.821, 154.6250
1000.000000, 72.912, 155.0634
1015.000000, 73.030, 155.6646
1030.000000, 73.150, 156.2105
1044.000000, 73.267, 156.6936
1060.000000, 73.399, 157.2052
1075.000000, 73.520, 157.6298
1090.000000, 73.644, 158.0597
1106.000000, 73.779, 158.5066
1120.000000, 73.894, 158.8536
1138.000000, 74.046, 159.2873
1150.000000, 74.152, 159.5655
1172.000000, 74.346, 160.0120
1180.000000, 74.414, 160.1528
1206.000000, 74.629, 160.5035
1220.000000, 74.740, 160.6494
1241.000000, 74.902, 160.8272
1250.000000, 74.972, 160.8873
1265.000000, 75.089, 160.9548
1280.000000, 75.201, 160.9817
1315.000000, 75.436, 161.0172
1320.000000, 75.466, 161.0181
1340.000000, 75.581, 161.0088
1360.000000, 75.690, 160.9930
1380.000000, 75.790, 161.0174
1400.000000, 75.883, 161.0498
1430.000000, 76.011, 161.0856
1450.000000, 76.089, 161.1354
1475.000000, 76.180, 161.2417
1500.000000, 76.262, 161.3769
1525.000000, 76.344, 161.5612
1550.000000, 76.425, 161.7903
1575.000000, 76.503, 162.0349
1600.000000, 76.581, 162.2955
1625.000000, 76.657, 162.5738
1650.000000, 76.732, 162.8422
1675.000000, 76.805, 163.1378
1700.000000, 76.880, 163.4699
1725.000000, 76.957, 163.8149
1750.000000, 77.036, 164.1519
1775.000000, 77.114, 164.4814
1800.000000, 77.191, 164.8206
1825.000000, 77.269, 165.1593
1850.000000, 77.350, 165.4922
1875.000000, 77.433, 165.8207
1900.000000, 77.517, 166.1395
1925.000000, 77.603, 166.4375
1950.000000, 77.692, 166.7222
1975.000000, 77.780, 166.9916
2000.000000, 77.864, 167.2424
2030.000000, 77.965, 167.5139
2060.000000, 78.068, 167.7424
2090.000000, 78.170, 167.9518
2120.000000, 78.272, 168.1339
2140.000000, 78.339, 168.2303
2180.000000, 78.469, 168.3853
2200.000000, 78.532, 168.4373
2240.000000, 78.655, 168.4683
2270.000000, 78.743, 168.4376
2300.000000, 78.825, 168.3701
2330.000000, 78.902, 168.2709
2360.000000, 78.974, 168.1351
2400.000000, 79.061, 167.8983
2430.000000, 79.121, 167.6824
2470.000000, 79.191, 167.3403
2500.000000, 79.232, 167.0548
2540.000000, 79.276, 166.6231
2580.000000, 79.304, 166.1683
2620.000000, 79.312, 165.7180
2650.000000, 79.308, 165.3829
2690.000000, 79.293, 164.9292
2720.000000, 79.271, 164.5865
2760.000000, 79.228, 164.1488
2800.000000, 79.171, 163.7454
2850.000000, 79.085, 163.3114
2900.000000, 78.982, 162.9529
2950.000000, 78.864, 162.6803
3000.000000, 78.737, 162.4791
3040.000000, 78.633, 162.3620
3070.000000, 78.552, 162.3192
3110.000000, 78.438, 162.3271
3150.000000, 78.319, 162.4051
3200.000000, 78.168, 162.5816
3250.000000, 78.019, 162.8218
3300.000000, 77.873, 163.1154
3350.000000, 77.732, 163.4880
3400.000000, 77.599, 163.9284
3450.000000, 77.473, 164.3875
3500.000000, 77.351, 164.8928
3550.000000, 77.236, 165.4074
3600.000000, 77.130, 165.9230
3650.000000, 77.027, 166.4295
3700.000000, 76.929, 166.9204
3750.000000, 76.834, 167.3971
3820.000000, 76.701, 168.0235
3870.000000, 76.604, 168.4376
3950.000000, 76.445, 169.1193
4000.000000, 76.349, 169.5999
4060.000000, 76.251, 170.2645
4120.000000, 76.187, 171.0418
4180.000000, 76.184, 171.7868
4250.000000, 76.257, 172.1297
4310.000000, 76.315, 171.6485
4370.000000, 76.323, 170.6945
4440.000000, 76.270, 169.0428
4500.000000, 76.123, 167.2595
4550.000000, 75.902, 165.8280
4620.000000, 75.463, 164.4099
4680.000000, 75.025, 164.0563
4750.000000, 74.531, 164.5871
4820.000000, 74.120, 165.7934
4870.000000, 73.884, 166.8198
4940.000000, 73.619, 168.2566
5000.000000, 73.438, 169.3901
5080.000000, 73.237, 170.6923
5150.000000, 73.078, 171.6689
5220.000000, 72.925, 172.5253
5300.000000, 72.754, 173.4110
5380.000000, 72.596, 174.2915
5450.000000, 72.473, 175.0593
5520.000000, 72.365, 175.8220
5600.000000, 72.254, 176.7110
5700.000000, 72.145, 177.7729
5800.000000, 72.069, 178.7767
5900.000000, 72.028, 179.6852
6000.000000, 72.016, -179.5042
6080.000000, 72.021, -178.9319
6150.000000, 72.029, -178.4839
6220.000000, 72.036, -178.0319
6300.000000, 72.046, -177.3990
6400.000000, 72.075, -176.3683
6500.000000, 72.162, -175.0263
6600.000000, 72.348, -173.3805
6700.000000, 72.662, -171.6659
6800.000000, 73.104, -170.1448
6900.000000, 73.669, -169.1293
7000.000000, 74.343, -168.8488
7100.000000, 75.088, -169.4896
7200.000000, 75.868, -171.2111
7300.000000, 76.628, -174.1085
7400.000000, 77.307, -178.1445
7500.000000, 77.855, 176.9126
7620.000000, 78.287, 170.2380
7750.000000, 78.456, 162.9405
7880.000000, 78.368, 156.3836
8000.000000, 78.148, 151.3675
8120.000000, 77.874, 147.3374
8250.000000, 77.580, 143.8121
8380.000000, 77.319, 140.7592
8500.000000, 77.096, 138.0333
8620.000000, 76.866, 135.2378
8750.000000, 76.565, 132.1012
8850.000000, 76.268, 129.6639
9000.000000, 75.683, 126.2146
9120.000000, 75.085, 123.9622
9250.000000, 74.324, 122.4131
9380.000000, 73.493, 122.0133
9500.000000, 72.709, 122.7398
9620.000000, 71.946, 124.5044
9750.000000, 71.183, 127.4416
9880.000000, 70.524, 131.2853
10000.000000, 70.029, 135.4055
10150.000000, 69.568, 140.9702
10300.000000, 69.276, 146.7055
10440.000000, 69.140, 151.9218
10600.000000, 69.113, 157.4956
10750.000000, 69.149, 162.2356
10900.000000, 69.231, 166.6369
11060.000000, 69.353, 171.0225
11200.000000, 69.469, 174.6357
11380.000000, 69.629, 179.1984
11500.000000, 69.755, -177.8651
11720.000000, 70.027, -172.6631
11800.000000, 70.142, -170.7729
12060.000000, 70.621, -164.8834
12200.000000, 70.943, -162.0844
12410.000000, 71.484, -158.6466
12500.000000, 71.730, -157.5191
12650.000000, 72.141, -156.1837
12800.000000, 72.534, -155.4936
13150.000000, 73.212, -156.0896
13200.000000, 73.266, -156.3597
13400.000000, 73.356, -157.5533
13600.000000, 73.266, -158.3726
13800.000000, 73.087, -158.3235
14000.000000, 72.911, -157.4940
14300.000000, 72.711, -155.7339
14500.000000, 72.616, -154.2351
14750.000000, 72.620, -151.8467
15000.000000, 72.862, -149.4320
15250.000000, 73.418, -148.1459
15500.000000, 74.266, -149.6823
15750.000000, 75.139, -156.2158
16000.000000, 75.405, -168.1219
16250.000000, 74.438, 178.5047
16500.000000, 72.298, 170.5530
16750.000000, 69.987, 171.6882
17000.000000, 68.612, 175.6233
17250.000000, 67.613, 174.7522
17500.000000, 65.938, 172.4115
17750.000000, 63.527, 173.9823
18000.000000, 60.811, -176.4308
18250.000000, 59.018, -154.8321
18500.000000, 59.348, -139.3053
18750.000000, 59.548, -140.7186
19000.000000, 58.328, -145.3217
19250.000000, 56.226, -146.3720
19500.000000, 53.839, -144.1123
19750.000000, 51.591, -140.5353
