* Measurement data measured by REW V5.31.3
* Source: Input device not selected, no input selected, L, volume: no control
* Format: 256k Log Swept Sine, 1 sweep at -11.0 dBFS with no timing reference
* Dated: Jun 20, 2025 11:07:39 PM
* REW Settings:
*  C-weighting compensation: Off
*  Target level: 75.0 dB
* Note: ; 
* Measurement: Defiant (Stock Foam) L
* Smoothing: 1/24 octave
* Frequency Step: 1/48 octave
* Start Frequency: 20.300 Hz
*
* Freq(Hz), SPL(dB), Phase(degrees)
20.299999, 80.998, 171.4033
20.600000, 80.981, 171.1264
20.900000, 80.958, 170.8113
21.200001, 80.936, 170.4843
21.400000, 80.923, 170.2596
21.799999, 80.898, 169.7997
22.000000, 80.886, 169.5708
22.400000, 80.859, 169.1341
22.700001, 80.836, 168.8350
23.000000, 80.814, 168.5591
23.299999, 80.792, 168.2946
23.600000, 80.774, 168.0241
24.000000, 80.752, 167.6302
24.299999, 80.737, 167.3058
24.700001, 80.716, 166.8544
25.000000, 80.698, 166.5258
25.400000, 80.671, 166.1303
25.799999, 80.643, 165.7905
26.200001, 80.616, 165.4821
26.500000, 80.596, 165.2476
26.900000, 80.570, 164.9066
27.200001, 80.550, 164.6271
27.600000, 80.521, 164.2371
28.000000, 80.491, 163.8545
28.500000, 80.457, 163.4194
29.000000, 80.427, 163.0355
29.500000, 80.398, 162.6756
30.000000, 80.366, 162.3086
30.400000, 80.337, 161.9982
30.700001, 80.315, 161.7553
31.100000, 80.283, 161.4230
31.500000, 80.250, 161.0930
32.000000, 80.209, 160.7063
32.500000, 80.170, 160.3647
33.000000, 80.134, 160.0580
33.500000, 80.102, 159.7520
34.000000, 80.072, 159.4207
34.500000, 80.039, 159.0713
35.000000, 80.001, 158.7319
35.500000, 79.962, 158.4179
36.000000, 79.924, 158.1156
36.500000, 79.886, 157.8030
37.000000, 79.849, 157.4779
37.500000, 79.811, 157.1577
38.200001, 79.759, 156.7403
38.700001, 79.723, 156.4567
39.500000, 79.662, 156.0034
40.000000, 79.623, 155.7191
40.599998, 79.579, 155.3752
41.200001, 79.542, 155.0271
41.799999, 79.504, 154.6895
42.500000, 79.456, 154.3332
43.099998, 79.409, 154.0538
43.700001, 79.360, 153.7691
44.400002, 79.302, 153.4069
45.000000, 79.254, 153.0816
45.500000, 79.218, 152.8168
46.200001, 79.172, 152.4683
46.799999, 79.135, 152.1863
47.500000, 79.086, 151.8700
48.200001, 79.032, 151.5661
48.700001, 78.991, 151.3526
49.400002, 78.936, 151.0538
50.000000, 78.893, 150.8038
50.799999, 78.838, 150.4742
51.500000, 78.789, 150.1639
52.200001, 78.733, 149.8510
53.000000, 78.671, 149.5509
53.799999, 78.621, 149.2782
54.500000, 78.578, 149.0071
55.200001, 78.528, 148.7395
56.000000, 78.469, 148.4896
57.000000, 78.396, 148.2213
58.000000, 78.322, 147.9422
59.000000, 78.256, 147.5551
60.000000, 78.187, 147.1118
60.799999, 78.127, 146.8575
61.500000, 78.075, 146.6844
62.200001, 78.027, 146.4895
63.000000, 77.973, 146.2268
64.000000, 77.908, 145.8962
65.000000, 77.843, 145.5942
66.000000, 77.777, 145.3508
67.000000, 77.712, 145.1306
68.000000, 77.644, 144.8625
69.000000, 77.581, 144.5846
70.000000, 77.526, 144.3228
71.000000, 77.464, 144.0622
72.000000, 77.393, 143.7873
73.000000, 77.319, 143.5556
74.000000, 77.250, 143.3800
75.000000, 77.183, 143.1839
76.199997, 77.105, 142.9558
77.500000, 77.016, 142.6930
78.800003, 76.933, 142.4290
80.000000, 76.871, 142.1977
81.199997, 76.802, 141.9633
82.500000, 76.723, 141.6993
83.800003, 76.644, 141.4567
85.000000, 76.575, 141.2658
86.199997, 76.512, 141.0675
87.500000, 76.437, 140.8828
88.500000, 76.378, 140.7627
90.000000, 76.291, 140.5770
91.199997, 76.219, 140.4256
92.500000, 76.144, 140.2559
93.800003, 76.071, 140.0793
95.000000, 76.005, 139.8958
96.199997, 75.943, 139.7569
97.500000, 75.882, 139.6337
98.800003, 75.826, 139.4426
100.000000, 75.766, 139.2582
101.500000, 75.680, 139.1075
103.000000, 75.597, 139.0086
104.400002, 75.521, 138.8817
106.000000, 75.441, 138.7075
107.500000, 75.369, 138.5698
109.000000, 75.298, 138.4317
110.599998, 75.221, 138.3291
112.000000, 75.153, 138.2382
113.800003, 75.066, 138.1274
115.000000, 75.008, 138.0642
117.199997, 74.905, 137.8821
118.000000, 74.871, 137.8186
120.599998, 74.763, 137.6884
122.000000, 74.705, 137.6033
124.099998, 74.620, 137.4541
125.000000, 74.581, 137.3954
126.500000, 74.511, 137.3053
128.000000, 74.446, 137.2495
131.500000, 74.315, 137.1602
132.000000, 74.296, 137.1512
134.000000, 74.221, 137.0924
136.000000, 74.150, 137.0136
138.000000, 74.074, 136.9489
140.000000, 73.992, 136.8931
143.000000, 73.872, 136.8300
145.000000, 73.806, 136.7654
147.500000, 73.731, 136.6578
150.000000, 73.651, 136.5799
152.500000, 73.568, 136.5375
155.000000, 73.489, 136.5026
157.500000, 73.413, 136.4957
160.000000, 73.332, 136.5081
162.500000, 73.257, 136.5287
165.000000, 73.179, 136.5242
167.500000, 73.111, 136.4742
170.000000, 73.043, 136.4362
172.500000, 72.970, 136.4031
175.000000, 72.899, 136.3799
177.500000, 72.825, 136.3641
180.000000, 72.759, 136.4106
182.500000, 72.699, 136.4896
185.000000, 72.641, 136.5105
187.500000, 72.585, 136.4850
190.000000, 72.525, 136.4881
192.500000, 72.461, 136.5066
195.000000, 72.403, 136.5261
197.500000, 72.353, 136.5526
200.000000, 72.305, 136.5202
203.000000, 72.242, 136.5153
206.000000, 72.177, 136.5908
209.000000, 72.115, 136.6524
212.000000, 72.057, 136.7136
214.000000, 72.023, 136.7112
218.000000, 71.954, 136.7555
220.000000, 71.916, 136.8169
224.000000, 71.847, 136.8674
227.000000, 71.801, 136.8642
230.000000, 71.756, 136.8819
233.000000, 71.711, 136.9403
236.000000, 71.664, 136.9935
240.000000, 71.603, 137.0534
243.000000, 71.560, 137.0976
247.000000, 71.506, 137.1768
250.000000, 71.462, 137.2550
254.000000, 71.411, 137.3598
258.000000, 71.360, 137.3853
262.000000, 71.313, 137.4646
265.000000, 71.279, 137.5486
269.000000, 71.233, 137.6745
272.000000, 71.202, 137.7180
276.000000, 71.166, 137.7485
280.000000, 71.130, 137.7790
285.000000, 71.080, 137.8475
290.000000, 71.036, 137.9027
295.000000, 70.989, 138.0003
300.000000, 70.946, 138.1369
304.000000, 70.914, 138.2395
307.000000, 70.893, 138.3055
311.000000, 70.868, 138.3752
315.000000, 70.845, 138.4167
320.000000, 70.812, 138.4492
325.000000, 70.778, 138.5452
330.000000, 70.750, 138.6996
335.000000, 70.722, 138.8323
340.000000, 70.692, 138.9699
345.000000, 70.663, 139.0337
350.000000, 70.643, 139.0554
355.000000, 70.627, 139.0790
360.000000, 70.611, 139.1582
365.000000, 70.596, 139.2673
370.000000, 70.579, 139.3542
375.000000, 70.561, 139.4756
382.000000, 70.545, 139.6459
387.000000, 70.533, 139.6930
395.000000, 70.511, 139.7902
400.000000, 70.501, 139.8814
406.000000, 70.495, 140.0054
412.000000, 70.484, 140.1569
418.000000, 70.475, 140.2667
425.000000, 70.469, 140.3683
431.000000, 70.459, 140.4759
437.000000, 70.457, 140.5655
444.000000, 70.458, 140.6522
450.000000, 70.456, 140.7662
455.000000, 70.455, 140.8510
462.000000, 70.454, 140.9933
468.000000, 70.455, 141.1347
475.000000, 70.461, 141.2728
482.000000, 70.468, 141.3990
487.000000, 70.469, 141.4594
494.000000, 70.473, 141.5759
500.000000, 70.481, 141.7007
508.000000, 70.498, 141.8708
515.000000, 70.513, 141.9614
522.000000, 70.519, 142.0602
530.000000, 70.524, 142.1714
538.000000, 70.532, 142.3071
545.000000, 70.543, 142.4577
552.000000, 70.551, 142.6288
560.000000, 70.555, 142.7982
570.000000, 70.562, 143.0098
580.000000, 70.575, 143.2408
590.000000, 70.597, 143.5392
600.000000, 70.618, 143.8006
608.000000, 70.631, 143.9930
615.000000, 70.643, 144.1702
622.000000, 70.661, 144.3534
630.000000, 70.683, 144.5972
640.000000, 70.701, 144.9480
650.000000, 70.726, 145.2327
660.000000, 70.749, 145.4980
670.000000, 70.777, 145.8280
680.000000, 70.812, 146.1692
690.000000, 70.839, 146.5131
700.000000, 70.867, 146.8414
710.000000, 70.894, 147.1721
720.000000, 70.923, 147.5422
730.000000, 70.959, 147.9354
740.000000, 70.990, 148.3118
750.000000, 71.024, 148.7028
762.000000, 71.069, 149.1767
775.000000, 71.121, 149.6786
788.000000, 71.172, 150.2029
800.000000, 71.221, 150.7071
812.000000, 71.277, 151.2350
825.000000, 71.341, 151.7749
838.000000, 71.406, 152.3784
850.000000, 71.467, 152.9294
862.000000, 71.528, 153.4557
875.000000, 71.596, 154.0302
885.000000, 71.654, 154.5094
900.000000, 71.746, 155.2640
912.000000, 71.821, 155.8101
925.000000, 71.902, 156.3941
938.000000, 71.987, 156.9810
950.000000, 72.068, 157.4999
962.000000, 72.151, 158.0156
975.000000, 72.251, 158.5995
988.000000, 72.361, 159.1991
1000.000000, 72.460, 159.7219
1015.000000, 72.574, 160.2739
1030.000000, 72.693, 160.8177
1044.000000, 72.807, 161.3331
1060.000000, 72.939, 161.8726
1075.000000, 73.062, 162.3686
1090.000000, 73.185, 162.8520
1106.000000, 73.321, 163.3113
1120.000000, 73.441, 163.6997
1138.000000, 73.595, 164.1752
1150.000000, 73.696, 164.4756
1172.000000, 73.886, 164.9701
1180.000000, 73.956, 165.1335
1206.000000, 74.173, 165.6086
1220.000000, 74.286, 165.7982
1241.000000, 74.453, 166.0800
1250.000000, 74.522, 166.1722
1265.000000, 74.633, 166.2901
1280.000000, 74.740, 166.3766
1315.000000, 74.972, 166.5502
1320.000000, 75.002, 166.5816
1340.000000, 75.119, 166.7042
1360.000000, 75.227, 166.7954
1380.000000, 75.328, 166.8929
1400.000000, 75.423, 167.0359
1430.000000, 75.553, 167.2915
1450.000000, 75.634, 167.4723
1475.000000, 75.731, 167.7387
1500.000000, 75.823, 168.0056
1525.000000, 75.912, 168.3334
1550.000000, 76.000, 168.6785
1575.000000, 76.084, 169.0252
1600.000000, 76.170, 169.4174
1625.000000, 76.256, 169.8351
1650.000000, 76.340, 170.2494
1675.000000, 76.424, 170.6829
1700.000000, 76.506, 171.1311
1725.000000, 76.596, 171.5709
1750.000000, 76.687, 171.9969
1775.000000, 76.777, 172.4299
1800.000000, 76.865, 172.8799
1825.000000, 76.957, 173.3263
1850.000000, 77.051, 173.7578
1875.000000, 77.144, 174.1842
1900.000000, 77.237, 174.6083
1925.000000, 77.331, 175.0127
1950.000000, 77.425, 175.3960
1975.000000, 77.520, 175.7584
2000.000000, 77.616, 176.1022
2030.000000, 77.732, 176.4936
2060.000000, 77.847, 176.8432
2090.000000, 77.962, 177.1727
2120.000000, 78.077, 177.4602
2140.000000, 78.153, 177.6237
2180.000000, 78.303, 177.9197
2200.000000, 78.376, 178.0545
2240.000000, 78.516, 178.2377
2270.000000, 78.616, 178.3159
2300.000000, 78.712, 178.3638
2330.000000, 78.804, 178.3683
2360.000000, 78.888, 178.3298
2400.000000, 78.992, 178.2416
2430.000000, 79.064, 178.1447
2470.000000, 79.147, 177.9681
2500.000000, 79.199, 177.7942
2540.000000, 79.255, 177.5370
2580.000000, 79.298, 177.2473
2620.000000, 79.327, 176.9653
2650.000000, 79.338, 176.7592
2690.000000, 79.342, 176.4863
2720.000000, 79.334, 176.2829
2760.000000, 79.311, 176.0307
2800.000000, 79.277, 175.8307
2850.000000, 79.222, 175.6482
2900.000000, 79.156, 175.5343
2950.000000, 79.077, 175.4891
3000.000000, 78.988, 175.5307
3040.000000, 78.913, 175.6293
3070.000000, 78.857, 175.7402
3110.000000, 78.779, 175.9204
3150.000000, 78.700, 176.1437
3200.000000, 78.604, 176.5046
3250.000000, 78.512, 176.9334
3300.000000, 78.424, 177.4321
3350.000000, 78.342, 177.9711
3400.000000, 78.270, 178.5344
3450.000000, 78.204, 179.1142
3500.000000, 78.147, 179.6981
3550.000000, 78.099, -179.6989
3600.000000, 78.059, -179.1332
3650.000000, 78.028, -178.6156
3700.000000, 78.005, -178.1339
3750.000000, 77.985, -177.7298
3820.000000, 77.957, -177.2856
3870.000000, 77.938, -177.0215
3950.000000, 77.896, -176.7260
4000.000000, 77.861, -176.5449
4060.000000, 77.820, -176.2567
4120.000000, 77.795, -175.8863
4180.000000, 77.812, -175.4854
4250.000000, 77.910, -175.3407
4310.000000, 78.037, -175.9683
4370.000000, 78.114, -177.4753
4440.000000, 78.045, -179.7574
4500.000000, 77.864, 178.3204
4550.000000, 77.633, 176.8854
4620.000000, 77.202, 175.4970
4680.000000, 76.784, 175.1403
4750.000000, 76.322, 175.6860
4820.000000, 75.944, 176.9281
4870.000000, 75.738, 177.9933
4940.000000, 75.532, 179.4652
5000.000000, 75.410, -179.4137
5080.000000, 75.297, -178.1432
5150.000000, 75.223, -177.2620
5220.000000, 75.169, -176.5841
5300.000000, 75.123, -175.9682
5380.000000, 75.094, -175.5053
5450.000000, 75.087, -175.2395
5520.000000, 75.095, -175.0908
5600.000000, 75.123, -175.1003
5700.000000, 75.179, -175.4575
5800.000000, 75.247, -176.2646
5900.000000, 75.294, -177.5467
6000.000000, 75.286, -179.2093
6080.000000, 75.225, 179.3779
6150.000000, 75.130, 178.2046
6220.000000, 75.001, 177.2500
6300.000000, 74.832, 176.5556
6400.000000, 74.650, 176.4059
6500.000000, 74.577, 176.8526
6600.000000, 74.652, 177.4156
6700.000000, 74.877, 177.5812
6800.000000, 75.209, 176.8658
6900.000000, 75.561, 175.0296
7000.000000, 75.850, 172.1866
7100.000000, 76.016, 168.7334
7200.000000, 76.039, 165.0782
7300.000000, 75.930, 161.5953
7400.000000, 75.715, 158.5838
7500.000000, 75.437, 156.2366
7620.000000, 75.084, 154.3342
7750.000000, 74.732, 153.2267
7880.000000, 74.444, 152.7924
8000.000000, 74.254, 152.7407
8120.000000, 74.136, 152.7916
8250.000000, 74.070, 152.7690
8380.000000, 74.029, 152.4356
8500.000000, 73.990, 151.8415
8620.000000, 73.921, 151.0047
8750.000000, 73.778, 149.9480
8850.000000, 73.610, 149.1539
9000.000000, 73.263, 148.2597
9120.000000, 72.906, 148.0436
9250.000000, 72.466, 148.4839
9380.000000, 72.009, 149.6877
9500.000000, 71.603, 151.5492
9620.000000, 71.238, 154.0524
9750.000000, 70.910, 157.3400
9880.000000, 70.672, 161.0493
10000.000000, 70.542, 164.6900
10150.000000, 70.498, 169.3161
10300.000000, 70.556, 173.8299
10440.000000, 70.681, 177.7607
10600.000000, 70.890, -178.1026
10750.000000, 71.123, -174.4565
10900.000000, 71.382, -170.9687
11060.000000, 71.703, -167.4083
11200.000000, 72.031, -164.4015
11380.000000, 72.532, -160.7919
11500.000000, 72.920, -158.6813
11720.000000, 73.724, -155.6534
11800.000000, 74.045, -154.8559
12060.000000, 75.185, -153.9630
12200.000000, 75.801, -154.8822
12410.000000, 76.591, -158.1266
12500.000000, 76.853, -160.0935
12650.000000, 77.158, -163.9056
12800.000000, 77.288, -168.0904
13150.000000, 76.966, -177.6487
13200.000000, 76.861, -178.8971
13400.000000, 76.319, 176.4875
13600.000000, 75.588, 172.6253
13800.000000, 74.694, 170.0561
14000.000000, 73.762, 169.2957
14300.000000, 72.698, 169.7264
14500.000000, 72.134, 168.8417
14750.000000, 71.230, 166.5220
15000.000000, 69.993, 164.5243
15250.000000, 68.505, 164.2527
15500.000000, 66.908, 166.1584
15750.000000, 65.313, 170.1220
16000.000000, 63.783, 176.2362
16250.000000, 62.426, -175.0528
16500.000000, 61.503, -163.2480
16750.000000, 61.436, -151.3750
17000.000000, 61.872, -145.4371
17250.000000, 61.870, -144.4784
17500.000000, 61.218, -143.5304
17750.000000, 60.179, -140.0842
18000.000000, 59.080, -132.2695
18250.000000, 58.901, -119.0698
18500.000000, 60.190, -113.2693
18750.000000, 60.877, -122.0372
19000.000000, 59.917, -134.8587
19250.000000, 57.790, -145.3758
19500.000000, 55.021, -153.1667
19750.000000, 51.971, -158.9266
