* Measurement data measured by REW V5.31.3
* Source: Input device not selected, no input selected, L, volume: no control
* Format: 256k Log Swept Sine, 1 sweep at -11.0 dBFS with no timing reference
* Dated: Jun 20, 2025 11:09:19 PM
* REW Settings:
*  C-weighting compensation: Off
*  Target level: 75.0 dB
* Note: ; 
* Measurement: Defiant (Stock White M) L
* Smoothing: 1/24 octave
* Frequency Step: 1/48 octave
* Start Frequency: 20.300 Hz
*
* Freq(Hz), SPL(dB), Phase(degrees)
20.299999, 81.769, 171.0505
20.600000, 81.753, 170.7607
20.900000, 81.730, 170.3997
21.200001, 81.704, 170.0108
21.400000, 81.687, 169.7502
21.799999, 81.656, 169.2635
22.000000, 81.644, 169.0496
22.400000, 81.628, 168.6855
22.700001, 81.622, 168.4496
23.000000, 81.619, 168.2163
23.299999, 81.614, 167.9606
23.600000, 81.603, 167.6694
24.000000, 81.575, 167.2357
24.299999, 81.544, 166.9009
24.700001, 81.499, 166.4846
25.000000, 81.468, 166.2124
25.400000, 81.439, 165.9011
25.799999, 81.424, 165.6198
26.200001, 81.417, 165.3318
26.500000, 81.411, 165.0982
26.900000, 81.394, 164.7639
27.200001, 81.373, 164.5052
27.600000, 81.332, 164.1671
28.000000, 81.284, 163.8523
28.500000, 81.225, 163.4945
29.000000, 81.180, 163.1483
29.500000, 81.149, 162.7746
30.000000, 81.123, 162.3674
30.400000, 81.099, 162.0442
30.700001, 81.079, 161.8204
31.100000, 81.049, 161.5550
31.500000, 81.022, 161.3155
32.000000, 80.994, 161.0146
32.500000, 80.971, 160.6854
33.000000, 80.950, 160.3419
33.500000, 80.926, 160.0174
34.000000, 80.893, 159.7415
34.500000, 80.843, 159.5486
35.000000, 80.778, 159.4677
35.500000, 80.715, 159.4607
36.000000, 80.674, 159.3840
36.500000, 80.658, 159.0711
37.000000, 80.651, 158.4961
37.500000, 80.633, 157.8238
38.200001, 80.589, 157.1204
38.700001, 80.562, 156.8689
39.500000, 80.533, 156.5819
40.000000, 80.509, 156.3095
40.599998, 80.466, 155.9138
41.200001, 80.416, 155.5523
41.799999, 80.377, 155.2467
42.500000, 80.341, 154.8575
43.099998, 80.302, 154.4473
43.700001, 80.248, 154.0260
44.400002, 80.178, 153.6168
45.000000, 80.119, 153.3430
45.500000, 80.071, 153.1557
46.200001, 80.004, 152.9519
46.799999, 79.958, 152.7905
47.500000, 79.918, 152.5177
48.200001, 79.880, 152.1516
48.700001, 79.848, 151.8959
49.400002, 79.806, 151.5752
50.000000, 79.773, 151.2861
50.799999, 79.718, 150.8848
51.500000, 79.660, 150.6025
52.200001, 79.608, 150.3666
53.000000, 79.559, 150.0809
53.799999, 79.519, 149.8196
54.500000, 79.487, 149.6206
55.200001, 79.441, 149.4108
56.000000, 79.368, 149.1750
57.000000, 79.293, 148.8490
58.000000, 79.246, 148.3272
59.000000, 79.182, 147.7881
60.000000, 79.102, 147.4211
60.799999, 79.041, 147.2014
61.500000, 78.993, 147.0158
62.200001, 78.949, 146.8049
63.000000, 78.901, 146.5237
64.000000, 78.835, 146.1794
65.000000, 78.762, 145.9155
66.000000, 78.693, 145.7001
67.000000, 78.628, 145.4468
68.000000, 78.558, 145.1423
69.000000, 78.502, 144.7937
70.000000, 78.456, 144.4945
71.000000, 78.392, 144.4883
72.000000, 78.324, 144.5248
73.000000, 78.258, 144.1668
74.000000, 78.190, 143.6787
75.000000, 78.127, 143.3767
76.199997, 78.057, 143.1092
77.500000, 77.988, 142.8394
78.800003, 77.910, 142.6055
80.000000, 77.827, 142.3549
81.199997, 77.752, 142.0904
82.500000, 77.676, 141.8318
83.800003, 77.605, 141.6306
85.000000, 77.538, 141.4639
86.199997, 77.467, 141.2493
87.500000, 77.393, 141.0380
88.500000, 77.338, 140.9313
90.000000, 77.252, 140.7307
91.199997, 77.179, 140.5183
92.500000, 77.104, 140.2878
93.800003, 77.035, 140.0946
95.000000, 76.974, 139.9843
96.199997, 76.911, 139.8620
97.500000, 76.845, 139.6769
98.800003, 76.776, 139.4840
100.000000, 76.712, 139.3142
101.500000, 76.631, 139.1546
103.000000, 76.554, 139.0091
104.400002, 76.487, 138.8426
106.000000, 76.411, 138.7052
107.500000, 76.343, 138.5708
109.000000, 76.275, 138.4191
110.599998, 76.201, 138.2828
112.000000, 76.128, 138.1949
113.800003, 76.033, 138.0652
115.000000, 75.977, 137.9381
117.199997, 75.885, 137.7161
118.000000, 75.849, 137.6824
120.599998, 75.736, 137.5344
122.000000, 75.678, 137.4154
124.099998, 75.591, 137.2536
125.000000, 75.556, 137.2050
126.500000, 75.496, 137.1508
128.000000, 75.434, 137.0765
131.500000, 75.288, 136.8138
132.000000, 75.268, 136.7898
134.000000, 75.189, 136.7330
136.000000, 75.115, 136.6223
138.000000, 75.035, 136.5296
140.000000, 74.953, 136.4867
143.000000, 74.839, 136.3732
145.000000, 74.769, 136.2973
147.500000, 74.686, 136.2318
150.000000, 74.605, 136.1476
152.500000, 74.524, 136.0619
155.000000, 74.445, 135.9839
157.500000, 74.365, 135.9264
160.000000, 74.280, 135.9631
162.500000, 74.203, 135.9490
165.000000, 74.124, 135.8792
167.500000, 74.044, 135.8474
170.000000, 73.965, 135.8052
172.500000, 73.891, 135.8064
175.000000, 73.818, 135.7923
177.500000, 73.748, 135.7445
180.000000, 73.681, 135.7214
182.500000, 73.613, 135.7516
185.000000, 73.544, 135.7645
187.500000, 73.478, 135.7552
190.000000, 73.418, 135.7917
192.500000, 73.353, 135.7981
195.000000, 73.287, 135.7729
197.500000, 73.221, 135.7877
200.000000, 73.150, 135.8231
203.000000, 73.065, 135.8845
206.000000, 72.980, 136.0123
209.000000, 72.898, 136.1796
212.000000, 72.821, 136.3937
214.000000, 72.769, 136.6013
218.000000, 72.665, 137.1711
220.000000, 72.625, 137.4936
224.000000, 72.591, 138.2518
227.000000, 72.615, 138.8554
230.000000, 72.673, 139.1992
233.000000, 72.734, 139.1452
236.000000, 72.773, 138.8158
240.000000, 72.783, 138.2692
243.000000, 72.768, 137.9350
247.000000, 72.720, 137.5992
250.000000, 72.671, 137.3868
254.000000, 72.603, 137.1459
258.000000, 72.536, 136.9475
262.000000, 72.472, 136.8316
265.000000, 72.428, 136.8220
269.000000, 72.373, 136.7810
272.000000, 72.334, 136.7277
276.000000, 72.283, 136.6996
280.000000, 72.239, 136.7035
285.000000, 72.185, 136.7358
290.000000, 72.127, 136.7730
295.000000, 72.078, 136.8087
300.000000, 72.034, 136.8569
304.000000, 71.997, 136.8752
307.000000, 71.971, 136.8733
311.000000, 71.937, 136.8919
315.000000, 71.902, 136.9376
320.000000, 71.862, 137.0082
325.000000, 71.832, 137.0253
330.000000, 71.803, 137.0576
335.000000, 71.769, 137.1125
340.000000, 71.737, 137.1848
345.000000, 71.706, 137.2106
350.000000, 71.680, 137.2128
355.000000, 71.655, 137.2788
360.000000, 71.635, 137.3755
365.000000, 71.613, 137.4535
370.000000, 71.588, 137.4774
375.000000, 71.573, 137.5324
382.000000, 71.555, 137.6654
387.000000, 71.532, 137.7414
395.000000, 71.502, 137.8336
400.000000, 71.487, 137.8770
406.000000, 71.472, 137.9671
412.000000, 71.462, 138.0258
418.000000, 71.452, 138.0900
425.000000, 71.436, 138.2216
431.000000, 71.422, 138.3352
437.000000, 71.417, 138.4494
444.000000, 71.415, 138.5179
450.000000, 71.409, 138.5816
455.000000, 71.403, 138.6847
462.000000, 71.399, 138.8384
468.000000, 71.402, 138.9359
475.000000, 71.413, 139.0894
482.000000, 71.424, 139.2260
487.000000, 71.432, 139.3016
494.000000, 71.443, 139.3636
500.000000, 71.453, 139.4480
508.000000, 71.467, 139.5462
515.000000, 71.469, 139.5639
522.000000, 71.469, 139.6082
530.000000, 71.477, 139.6987
538.000000, 71.486, 139.8001
545.000000, 71.489, 139.9212
552.000000, 71.492, 140.0270
560.000000, 71.497, 140.1330
570.000000, 71.501, 140.2770
580.000000, 71.516, 140.4702
590.000000, 71.533, 140.6834
600.000000, 71.537, 140.8859
608.000000, 71.543, 141.0421
615.000000, 71.552, 141.1860
622.000000, 71.562, 141.3448
630.000000, 71.574, 141.5551
640.000000, 71.589, 141.8107
650.000000, 71.601, 142.0456
660.000000, 71.619, 142.3002
670.000000, 71.632, 142.6228
680.000000, 71.649, 142.9609
690.000000, 71.671, 143.3246
700.000000, 71.695, 143.7523
710.000000, 71.727, 144.1315
720.000000, 71.766, 144.5036
730.000000, 71.809, 144.8954
740.000000, 71.849, 145.2350
750.000000, 71.888, 145.5603
762.000000, 71.938, 145.9838
775.000000, 71.994, 146.4143
788.000000, 72.046, 146.8571
800.000000, 72.087, 147.2913
812.000000, 72.133, 147.8054
825.000000, 72.187, 148.3473
838.000000, 72.248, 148.8789
850.000000, 72.306, 149.3882
862.000000, 72.365, 149.9076
875.000000, 72.434, 150.4825
885.000000, 72.490, 150.9445
900.000000, 72.575, 151.6517
912.000000, 72.646, 152.1828
925.000000, 72.729, 152.7407
938.000000, 72.818, 153.2882
950.000000, 72.903, 153.7928
962.000000, 72.991, 154.3079
975.000000, 73.089, 154.8679
988.000000, 73.192, 155.4156
1000.000000, 73.289, 155.9077
1015.000000, 73.405, 156.5066
1030.000000, 73.528, 157.0652
1044.000000, 73.649, 157.5394
1060.000000, 73.783, 158.0544
1075.000000, 73.911, 158.5103
1090.000000, 74.042, 158.9337
1106.000000, 74.185, 159.3786
1120.000000, 74.313, 159.7293
1138.000000, 74.466, 160.1533
1150.000000, 74.569, 160.4316
1172.000000, 74.765, 160.8357
1180.000000, 74.836, 160.9620
1206.000000, 75.063, 161.2795
1220.000000, 75.185, 161.4133
1241.000000, 75.360, 161.5765
1250.000000, 75.434, 161.6171
1265.000000, 75.553, 161.6628
1280.000000, 75.666, 161.6986
1315.000000, 75.906, 161.7009
1320.000000, 75.938, 161.6955
1340.000000, 76.057, 161.6465
1360.000000, 76.168, 161.5661
1380.000000, 76.271, 161.5172
1400.000000, 76.366, 161.4895
1430.000000, 76.499, 161.5196
1450.000000, 76.576, 161.5607
1475.000000, 76.668, 161.6086
1500.000000, 76.757, 161.7226
1525.000000, 76.843, 161.8667
1550.000000, 76.923, 162.0173
1575.000000, 77.002, 162.2239
1600.000000, 77.079, 162.4598
1625.000000, 77.155, 162.6931
1650.000000, 77.230, 162.9438
1675.000000, 77.304, 163.2123
1700.000000, 77.378, 163.4877
1725.000000, 77.453, 163.7910
1750.000000, 77.527, 164.1006
1775.000000, 77.600, 164.4251
1800.000000, 77.674, 164.7386
1825.000000, 77.748, 165.0531
1850.000000, 77.820, 165.3889
1875.000000, 77.895, 165.7298
1900.000000, 77.972, 166.0651
1925.000000, 78.052, 166.4021
1950.000000, 78.130, 166.7378
1975.000000, 78.208, 167.0922
2000.000000, 78.288, 167.4739
2030.000000, 78.398, 167.9153
2060.000000, 78.523, 168.3289
2090.000000, 78.657, 168.6670
2120.000000, 78.797, 168.8678
2140.000000, 78.889, 168.9179
2180.000000, 79.062, 168.8582
2200.000000, 79.140, 168.7857
2240.000000, 79.279, 168.5811
2270.000000, 79.371, 168.3974
2300.000000, 79.455, 168.1926
2330.000000, 79.530, 167.9493
2360.000000, 79.598, 167.6915
2400.000000, 79.678, 167.3349
2430.000000, 79.730, 167.0460
2470.000000, 79.787, 166.6375
2500.000000, 79.820, 166.3170
2540.000000, 79.852, 165.8498
2580.000000, 79.871, 165.3828
2620.000000, 79.877, 164.9148
2650.000000, 79.872, 164.5674
2690.000000, 79.855, 164.1045
2720.000000, 79.835, 163.7627
2760.000000, 79.797, 163.3132
2800.000000, 79.745, 162.8638
2850.000000, 79.664, 162.3350
2900.000000, 79.563, 161.8928
2950.000000, 79.448, 161.5625
3000.000000, 79.323, 161.3075
3040.000000, 79.213, 161.1793
3070.000000, 79.130, 161.1203
3110.000000, 79.017, 161.0847
3150.000000, 78.903, 161.0942
3200.000000, 78.760, 161.1861
3250.000000, 78.619, 161.3567
3300.000000, 78.480, 161.5790
3350.000000, 78.346, 161.8699
3400.000000, 78.217, 162.2045
3450.000000, 78.094, 162.5813
3500.000000, 77.978, 162.9752
3550.000000, 77.868, 163.3701
3600.000000, 77.765, 163.7605
3650.000000, 77.670, 164.1467
3700.000000, 77.579, 164.4978
3750.000000, 77.491, 164.7975
3820.000000, 77.375, 165.1792
3870.000000, 77.292, 165.4135
3950.000000, 77.153, 165.7381
4000.000000, 77.060, 165.9259
4060.000000, 76.951, 166.2162
4120.000000, 76.865, 166.6217
4180.000000, 76.827, 167.0183
4250.000000, 76.858, 167.0150
4310.000000, 76.894, 166.2207
4370.000000, 76.871, 164.9136
4440.000000, 76.763, 162.9398
4500.000000, 76.563, 160.9632
4550.000000, 76.298, 159.3873
4620.000000, 75.802, 157.7867
4680.000000, 75.314, 157.2724
4750.000000, 74.756, 157.6629
4820.000000, 74.279, 158.7584
4870.000000, 74.002, 159.7280
4940.000000, 73.684, 161.1313
5000.000000, 73.459, 162.2577
5080.000000, 73.201, 163.5658
5150.000000, 72.997, 164.5221
5220.000000, 72.804, 165.3524
5300.000000, 72.592, 166.1916
5380.000000, 72.395, 166.9690
5450.000000, 72.236, 167.6374
5520.000000, 72.083, 168.2873
5600.000000, 71.917, 168.9837
5700.000000, 71.729, 169.7951
5800.000000, 71.575, 170.5039
5900.000000, 71.441, 171.0679
6000.000000, 71.302, 171.5012
6080.000000, 71.185, 171.8081
6150.000000, 71.076, 172.1075
6220.000000, 70.959, 172.4718
6300.000000, 70.819, 173.0638
6400.000000, 70.659, 174.2664
6500.000000, 70.555, 176.0594
6600.000000, 70.545, 178.2319
6700.000000, 70.670, -179.4562
6800.000000, 70.931, -177.3406
6900.000000, 71.305, -175.6332
7000.000000, 71.770, -174.5107
7100.000000, 72.296, -174.1064
7200.000000, 72.843, -174.5120
7300.000000, 73.372, -175.7171
7400.000000, 73.846, -177.5797
7500.000000, 74.244, -179.9816
7620.000000, 74.595, 176.7024
7750.000000, 74.807, 173.0730
7880.000000, 74.863, 169.8648
8000.000000, 74.818, 167.5913
8120.000000, 74.738, 166.0479
8250.000000, 74.659, 165.1313
8380.000000, 74.629, 164.8624
8500.000000, 74.664, 164.9715
8620.000000, 74.762, 165.2170
8750.000000, 74.951, 165.3980
8850.000000, 75.148, 165.3430
9000.000000, 75.496, 164.6009
9120.000000, 75.775, 163.2928
9250.000000, 76.014, 161.1598
9380.000000, 76.133, 158.4576
9500.000000, 76.101, 155.7909
9620.000000, 75.928, 153.3594
9750.000000, 75.618, 151.3938
9880.000000, 75.233, 150.3324
10000.000000, 74.867, 150.1591
10150.000000, 74.453, 150.7880
10300.000000, 74.113, 151.9462
10440.000000, 73.852, 153.2527
10600.000000, 73.593, 154.8313
10750.000000, 73.365, 156.3523
10900.000000, 73.144, 158.0107
11060.000000, 72.909, 160.0117
11200.000000, 72.709, 161.9873
11380.000000, 72.483, 164.8796
11500.000000, 72.364, 167.0100
11720.000000, 72.233, 171.1686
11800.000000, 72.218, 172.7288
12060.000000, 72.319, 177.5178
12200.000000, 72.452, 179.6470
12410.000000, 72.705, -178.0585
12500.000000, 72.822, -177.4514
12650.000000, 73.003, -176.9745
12800.000000, 73.133, -177.1315
13150.000000, 73.083, -179.1939
13200.000000, 73.025, -179.5894
13400.000000, 72.665, 178.9962
13600.000000, 72.119, 178.2997
13800.000000, 71.447, 178.8086
14000.000000, 70.766, -179.3381
14300.000000, 69.899, -175.1236
14500.000000, 69.417, -171.8655
14750.000000, 68.917, -167.3619
15000.000000, 68.551, -162.6994
15250.000000, 68.332, -158.1671
15500.000000, 68.282, -154.1273
15750.000000, 68.358, -151.2450
16000.000000, 68.417, -150.2282
16250.000000, 68.182, -150.9154
16500.000000, 67.437, -150.1797
16750.000000, 66.669, -143.9180
17000.000000, 66.856, -135.5021
17250.000000, 67.696, -133.3363
17500.000000, 68.066, -138.0073
17750.000000, 67.356, -144.4979
18000.000000, 65.616, -146.0745
18250.000000, 63.976, -136.5758
18500.000000, 64.071, -127.1763
18750.000000, 64.374, -131.1818
19000.000000, 63.420, -139.5660
19250.000000, 61.520, -145.7192
19500.000000, 59.191, -149.2387
19750.000000, 56.829, -151.3263
