* Measurement data measured by REW V5.31.3
* Source: Input device not selected, no input selected, L, volume: no control
* Format: 256k Log Swept Sine, 1 sweep at -11.0 dBFS with no timing reference
* Dated: Jun 20, 2025 11:15:17 PM
* REW Settings:
*  C-weighting compensation: Off
*  Target level: 75.0 dB
* Note: ; 
* Measurement: Defiant (Velvet M) L
* Smoothing: 1/24 octave
* Frequency Step: 1/48 octave
* Start Frequency: 20.300 Hz
*
* Freq(Hz), SPL(dB), Phase(degrees)
20.299999, 80.876, 170.3453
20.600000, 80.855, 169.9957
20.900000, 80.826, 169.6005
21.200001, 80.796, 169.2002
21.400000, 80.779, 168.9330
21.799999, 80.752, 168.4073
22.000000, 80.743, 168.1561
22.400000, 80.731, 167.6978
22.700001, 80.725, 167.4023
23.000000, 80.720, 167.1475
23.299999, 80.714, 166.9224
23.600000, 80.704, 166.7114
24.000000, 80.681, 166.4269
24.299999, 80.657, 166.1990
24.700001, 80.617, 165.8705
25.000000, 80.584, 165.6071
25.400000, 80.546, 165.2361
25.799999, 80.516, 164.8433
26.200001, 80.496, 164.4304
26.500000, 80.485, 164.1129
26.900000, 80.469, 163.6950
27.200001, 80.453, 163.4004
27.600000, 80.423, 163.0525
28.000000, 80.384, 162.7666
28.500000, 80.332, 162.4781
29.000000, 80.285, 162.2041
29.500000, 80.247, 161.8793
30.000000, 80.213, 161.4861
30.400000, 80.186, 161.1447
30.700001, 80.166, 160.8890
31.100000, 80.138, 160.5610
31.500000, 80.110, 160.2505
32.000000, 80.073, 159.8796
32.500000, 80.035, 159.5179
33.000000, 79.997, 159.1556
33.500000, 79.959, 158.7857
34.000000, 79.920, 158.4199
34.500000, 79.877, 158.0965
35.000000, 79.833, 157.8439
35.500000, 79.796, 157.6321
36.000000, 79.763, 157.3815
36.500000, 79.728, 157.0386
37.000000, 79.684, 156.6311
37.500000, 79.633, 156.2321
38.200001, 79.570, 155.7534
38.700001, 79.536, 155.4509
39.500000, 79.488, 155.0241
40.000000, 79.462, 154.8004
40.599998, 79.437, 154.5234
41.200001, 79.410, 154.1919
41.799999, 79.368, 153.8605
42.500000, 79.305, 153.5539
43.099998, 79.249, 153.2944
43.700001, 79.191, 152.9538
44.400002, 79.122, 152.5125
45.000000, 79.076, 152.1856
45.500000, 79.048, 151.9550
46.200001, 79.010, 151.6689
46.799999, 78.965, 151.4521
47.500000, 78.910, 151.1838
48.200001, 78.861, 150.8147
48.700001, 78.828, 150.5040
49.400002, 78.773, 150.1232
50.000000, 78.715, 149.9248
50.799999, 78.632, 149.7742
51.500000, 78.567, 149.5669
52.200001, 78.511, 149.2374
53.000000, 78.459, 148.8789
53.799999, 78.426, 148.5995
54.500000, 78.392, 148.3197
55.200001, 78.338, 148.0247
56.000000, 78.264, 147.7275
57.000000, 78.171, 147.3078
58.000000, 78.070, 146.8653
59.000000, 77.999, 146.4292
60.000000, 77.948, 146.1002
60.799999, 77.907, 146.0253
61.500000, 77.867, 145.9397
62.200001, 77.813, 145.7149
63.000000, 77.740, 145.3675
64.000000, 77.661, 145.0540
65.000000, 77.600, 144.7958
66.000000, 77.519, 144.4414
67.000000, 77.450, 144.2654
68.000000, 77.423, 144.1856
69.000000, 77.369, 143.9856
70.000000, 77.312, 143.6473
71.000000, 77.296, 142.9871
72.000000, 77.233, 142.4061
73.000000, 77.105, 142.4276
74.000000, 77.015, 142.5480
75.000000, 76.971, 142.3075
76.199997, 76.897, 142.1194
77.500000, 76.785, 142.0825
78.800003, 76.691, 141.8768
80.000000, 76.627, 141.5849
81.199997, 76.550, 141.2231
82.500000, 76.479, 140.9023
83.800003, 76.406, 140.6290
85.000000, 76.322, 140.4028
86.199997, 76.251, 140.3207
87.500000, 76.185, 140.2748
88.500000, 76.129, 140.1515
90.000000, 76.052, 139.9429
91.199997, 75.997, 139.7782
92.500000, 75.924, 139.5412
93.800003, 75.836, 139.3492
95.000000, 75.758, 139.2054
96.199997, 75.688, 139.0150
97.500000, 75.622, 138.8800
98.800003, 75.565, 138.7730
100.000000, 75.499, 138.6224
101.500000, 75.409, 138.4267
103.000000, 75.331, 138.3165
104.400002, 75.268, 138.2336
106.000000, 75.194, 138.0542
107.500000, 75.121, 137.8552
109.000000, 75.048, 137.6470
110.599998, 74.952, 137.4146
112.000000, 74.855, 137.2181
113.800003, 74.781, 137.0911
115.000000, 74.742, 137.0039
117.199997, 74.625, 136.8167
118.000000, 74.581, 136.7810
120.599998, 74.479, 136.7769
122.000000, 74.416, 136.7352
124.099998, 74.314, 136.5727
125.000000, 74.275, 136.5342
126.500000, 74.210, 136.5436
128.000000, 74.138, 136.5496
131.500000, 73.955, 136.3984
132.000000, 73.929, 136.3877
134.000000, 73.849, 136.3945
136.000000, 73.791, 136.3346
138.000000, 73.732, 136.2248
140.000000, 73.646, 136.1910
143.000000, 73.488, 136.2037
145.000000, 73.399, 136.1962
147.500000, 73.279, 136.2230
150.000000, 73.166, 136.3207
152.500000, 73.060, 136.4825
155.000000, 72.952, 136.6210
157.500000, 72.850, 136.8389
160.000000, 72.752, 137.1006
162.500000, 72.673, 137.5703
165.000000, 72.611, 138.2254
167.500000, 72.577, 138.9447
170.000000, 72.580, 139.6053
172.500000, 72.622, 139.9774
175.000000, 72.688, 140.0316
177.500000, 72.753, 139.7522
180.000000, 72.787, 139.3080
182.500000, 72.789, 138.7919
185.000000, 72.765, 138.2553
187.500000, 72.717, 137.7783
190.000000, 72.660, 137.4604
192.500000, 72.601, 137.2227
195.000000, 72.538, 136.9766
197.500000, 72.472, 136.7748
200.000000, 72.401, 136.6497
203.000000, 72.322, 136.5460
206.000000, 72.246, 136.4192
209.000000, 72.174, 136.3251
212.000000, 72.110, 136.2613
214.000000, 72.067, 136.2266
218.000000, 71.985, 136.1628
220.000000, 71.944, 136.1646
224.000000, 71.868, 136.1376
227.000000, 71.813, 136.1068
230.000000, 71.759, 136.1289
233.000000, 71.704, 136.1617
236.000000, 71.655, 136.1646
240.000000, 71.594, 136.1404
243.000000, 71.547, 136.1538
247.000000, 71.485, 136.1443
250.000000, 71.440, 136.1955
254.000000, 71.385, 136.2700
258.000000, 71.334, 136.2728
262.000000, 71.282, 136.2880
265.000000, 71.242, 136.3388
269.000000, 71.189, 136.3993
272.000000, 71.149, 136.3990
276.000000, 71.100, 136.3819
280.000000, 71.058, 136.4259
285.000000, 71.010, 136.5689
290.000000, 70.960, 136.6362
295.000000, 70.916, 136.6288
300.000000, 70.877, 136.6489
304.000000, 70.836, 136.7198
307.000000, 70.801, 136.7663
311.000000, 70.763, 136.7946
315.000000, 70.731, 136.8463
320.000000, 70.694, 136.9630
325.000000, 70.660, 137.0299
330.000000, 70.622, 137.0696
335.000000, 70.577, 137.1923
340.000000, 70.538, 137.3978
345.000000, 70.504, 137.6216
350.000000, 70.472, 137.9386
355.000000, 70.451, 138.2997
360.000000, 70.452, 138.6727
365.000000, 70.474, 138.9493
370.000000, 70.506, 139.0638
375.000000, 70.536, 139.0341
382.000000, 70.560, 138.9033
387.000000, 70.568, 138.7760
395.000000, 70.557, 138.6772
400.000000, 70.547, 138.6394
406.000000, 70.531, 138.6743
412.000000, 70.515, 138.7070
418.000000, 70.501, 138.7179
425.000000, 70.483, 138.7435
431.000000, 70.471, 138.7671
437.000000, 70.468, 138.8418
444.000000, 70.465, 138.9625
450.000000, 70.460, 139.0555
455.000000, 70.456, 139.1552
462.000000, 70.453, 139.3000
468.000000, 70.454, 139.4182
475.000000, 70.458, 139.5519
482.000000, 70.461, 139.6862
487.000000, 70.463, 139.7859
494.000000, 70.465, 139.9399
500.000000, 70.475, 140.0871
508.000000, 70.493, 140.2704
515.000000, 70.502, 140.4544
522.000000, 70.515, 140.6354
530.000000, 70.538, 140.7976
538.000000, 70.561, 140.9191
545.000000, 70.585, 141.0011
552.000000, 70.606, 141.0982
560.000000, 70.630, 141.2114
570.000000, 70.663, 141.3466
580.000000, 70.690, 141.5288
590.000000, 70.706, 141.6974
600.000000, 70.724, 141.8673
608.000000, 70.740, 141.9999
615.000000, 70.757, 142.1239
622.000000, 70.772, 142.2506
630.000000, 70.787, 142.4154
640.000000, 70.810, 142.6483
650.000000, 70.835, 142.8810
660.000000, 70.863, 143.1126
670.000000, 70.893, 143.3809
680.000000, 70.921, 143.6862
690.000000, 70.942, 144.0171
700.000000, 70.968, 144.3425
710.000000, 71.002, 144.6323
720.000000, 71.032, 144.9294
730.000000, 71.061, 145.2188
740.000000, 71.095, 145.5684
750.000000, 71.131, 145.9508
762.000000, 71.179, 146.4402
775.000000, 71.231, 146.9201
788.000000, 71.279, 147.3951
800.000000, 71.329, 147.8703
812.000000, 71.381, 148.4317
825.000000, 71.439, 149.0372
838.000000, 71.504, 149.6049
850.000000, 71.567, 150.1207
862.000000, 71.627, 150.6459
875.000000, 71.692, 151.2155
885.000000, 71.747, 151.6929
900.000000, 71.840, 152.3317
912.000000, 71.923, 152.8279
925.000000, 72.016, 153.3947
938.000000, 72.097, 153.9763
950.000000, 72.175, 154.5163
962.000000, 72.259, 155.0524
975.000000, 72.358, 155.6089
988.000000, 72.463, 156.1053
1000.000000, 72.562, 156.5676
1015.000000, 72.680, 157.2010
1030.000000, 72.801, 157.7698
1044.000000, 72.920, 158.2195
1060.000000, 73.052, 158.7246
1075.000000, 73.173, 159.2036
1090.000000, 73.296, 159.6448
1106.000000, 73.433, 160.0662
1120.000000, 73.554, 160.4263
1138.000000, 73.708, 160.8849
1150.000000, 73.809, 161.1558
1172.000000, 73.992, 161.5992
1180.000000, 74.058, 161.7470
1206.000000, 74.274, 162.1731
1220.000000, 74.391, 162.3665
1241.000000, 74.558, 162.5893
1250.000000, 74.626, 162.6591
1265.000000, 74.737, 162.7492
1280.000000, 74.847, 162.8227
1315.000000, 75.080, 162.9618
1320.000000, 75.110, 162.9738
1340.000000, 75.222, 163.0382
1360.000000, 75.326, 163.1008
1380.000000, 75.424, 163.1781
1400.000000, 75.516, 163.2861
1430.000000, 75.644, 163.4176
1450.000000, 75.720, 163.5600
1475.000000, 75.809, 163.7882
1500.000000, 75.896, 164.0194
1525.000000, 75.983, 164.2841
1550.000000, 76.064, 164.5917
1575.000000, 76.143, 164.9183
1600.000000, 76.227, 165.2543
1625.000000, 76.308, 165.6278
1650.000000, 76.386, 166.0123
1675.000000, 76.464, 166.4158
1700.000000, 76.546, 166.8133
1725.000000, 76.629, 167.2024
1750.000000, 76.711, 167.5975
1775.000000, 76.794, 168.0151
1800.000000, 76.881, 168.4325
1825.000000, 76.968, 168.8355
1850.000000, 77.051, 169.2418
1875.000000, 77.135, 169.6309
1900.000000, 77.223, 169.9955
1925.000000, 77.311, 170.3650
1950.000000, 77.401, 170.7372
1975.000000, 77.493, 171.0891
2000.000000, 77.582, 171.4137
2030.000000, 77.687, 171.7530
2060.000000, 77.795, 172.0767
2090.000000, 77.904, 172.3626
2120.000000, 78.008, 172.6130
2140.000000, 78.076, 172.7630
2180.000000, 78.211, 173.0030
2200.000000, 78.280, 173.0850
2240.000000, 78.414, 173.2167
2270.000000, 78.510, 173.2942
2300.000000, 78.599, 173.3037
2330.000000, 78.682, 173.2562
2360.000000, 78.762, 173.1754
2400.000000, 78.857, 173.0440
2430.000000, 78.920, 172.9055
2470.000000, 78.992, 172.6579
2500.000000, 79.038, 172.4454
2540.000000, 79.087, 172.1390
2580.000000, 79.120, 171.8101
2620.000000, 79.135, 171.4616
2650.000000, 79.137, 171.1892
2690.000000, 79.125, 170.8404
2720.000000, 79.108, 170.5990
2760.000000, 79.072, 170.2941
2800.000000, 79.024, 170.0125
2850.000000, 78.951, 169.7177
2900.000000, 78.861, 169.5105
2950.000000, 78.756, 169.3713
3000.000000, 78.641, 169.3231
3040.000000, 78.547, 169.3512
3070.000000, 78.475, 169.4119
3110.000000, 78.373, 169.5391
3150.000000, 78.267, 169.7195
3200.000000, 78.136, 170.0034
3250.000000, 78.008, 170.3867
3300.000000, 77.883, 170.8609
3350.000000, 77.759, 171.3894
3400.000000, 77.638, 171.9895
3450.000000, 77.526, 172.6578
3500.000000, 77.429, 173.3707
3550.000000, 77.345, 174.1341
3600.000000, 77.277, 174.8951
3650.000000, 77.226, 175.5871
3700.000000, 77.182, 176.1857
3750.000000, 77.140, 176.6779
3820.000000, 77.074, 177.2420
3870.000000, 77.017, 177.6149
3950.000000, 76.900, 178.3030
4000.000000, 76.825, 178.8656
4060.000000, 76.761, 179.7260
4120.000000, 76.764, -179.2809
4180.000000, 76.853, -178.6073
4250.000000, 76.994, -178.7673
4310.000000, 77.076, -179.5157
4370.000000, 77.119, 179.2537
4440.000000, 77.065, 177.1995
4500.000000, 76.882, 175.2589
4550.000000, 76.629, 173.8501
4620.000000, 76.162, 172.6284
4680.000000, 75.721, 172.4978
4750.000000, 75.246, 173.3245
4820.000000, 74.864, 174.7665
4870.000000, 74.655, 175.9411
4940.000000, 74.435, 177.5625
5000.000000, 74.297, 178.8099
5080.000000, 74.154, -179.7585
5150.000000, 74.049, -178.6901
5220.000000, 73.957, -177.7482
5300.000000, 73.868, -176.7893
5380.000000, 73.794, -175.8934
5450.000000, 73.744, -175.1484
5520.000000, 73.709, -174.4391
5600.000000, 73.690, -173.6851
5700.000000, 73.708, -172.8485
5800.000000, 73.772, -172.2634
5900.000000, 73.866, -171.9350
6000.000000, 73.978, -171.8759
6080.000000, 74.071, -172.0485
6150.000000, 74.142, -172.3304
6220.000000, 74.201, -172.6412
6300.000000, 74.257, -172.8792
6400.000000, 74.338, -172.8599
6500.000000, 74.475, -172.4745
6600.000000, 74.728, -171.8389
6700.000000, 75.127, -171.3128
6800.000000, 75.673, -171.3464
6900.000000, 76.330, -172.3901
7000.000000, 77.037, -174.7695
7100.000000, 77.703, -178.6051
7200.000000, 78.238, 176.2821
7300.000000, 78.571, 170.3492
7400.000000, 78.677, 164.1702
7500.000000, 78.576, 158.3628
7620.000000, 78.252, 152.4467
7750.000000, 77.777, 147.5810
7880.000000, 77.295, 144.1454
8000.000000, 76.905, 141.8709
8120.000000, 76.575, 140.0690
8250.000000, 76.277, 138.2590
8380.000000, 76.010, 136.3500
8500.000000, 75.744, 134.4209
8620.000000, 75.420, 132.3735
8750.000000, 74.981, 130.2545
8850.000000, 74.572, 128.8601
9000.000000, 73.851, 127.4691
9120.000000, 73.208, 127.1977
9250.000000, 72.477, 127.8637
9380.000000, 71.754, 129.5397
9500.000000, 71.123, 131.8975
9620.000000, 70.544, 134.9416
9750.000000, 69.995, 138.9164
9880.000000, 69.550, 143.4568
10000.000000, 69.242, 147.9791
10150.000000, 68.991, 153.8484
10300.000000, 68.881, 159.7311
10440.000000, 68.885, 165.0392
10600.000000, 68.987, 170.7351
10750.000000, 69.137, 175.7334
10900.000000, 69.322, -179.5072
11060.000000, 69.562, -174.6663
11200.000000, 69.802, -170.5882
11380.000000, 70.164, -165.3966
11500.000000, 70.446, -161.9959
11720.000000, 71.051, -156.0831
11800.000000, 71.305, -154.0213
12060.000000, 72.299, -148.0108
12200.000000, 72.926, -145.5230
12410.000000, 73.930, -143.1025
12500.000000, 74.368, -142.6063
12650.000000, 75.086, -142.5514
12800.000000, 75.757, -143.4395
13150.000000, 76.959, -148.4631
13200.000000, 77.076, -149.4022
13400.000000, 77.403, -153.3399
13600.000000, 77.525, -157.1875
13800.000000, 77.488, -160.5213
14000.000000, 77.381, -162.9814
14300.000000, 77.412, -165.6369
14500.000000, 77.643, -168.5683
14750.000000, 77.902, -175.4447
15000.000000, 77.683, 174.4441
15250.000000, 76.666, 163.7120
15500.000000, 74.913, 155.6805
15750.000000, 72.755, 152.2159
16000.000000, 70.543, 153.4909
16250.000000, 68.541, 159.1217
16500.000000, 67.030, 168.5652
16750.000000, 66.336, 178.8069
17000.000000, 66.197, -175.1780
17250.000000, 65.831, -173.0040
17500.000000, 65.015, -170.6532
17750.000000, 63.958, -165.8447
18000.000000, 62.995, -156.5535
18250.000000, 63.233, -142.7225
18500.000000, 64.850, -139.2975
18750.000000, 65.531, -150.5095
19000.000000, 64.486, -164.3016
19250.000000, 62.421, -175.0602
19500.000000, 59.948, 175.7422
19750.000000, 57.256, 166.6019
