* Measurement data measured by REW V5.31.3
* Source: Input device not selected, no input selected, L, volume: no control
* Format: 256k Log Swept Sine, 1 sweep at -11.0 dBFS with no timing reference
* Dated: Jun 20, 2025 11:14:23 PM
* REW Settings:
*  C-weighting compensation: Off
*  Target level: 75.0 dB
* Note: ; 
* Measurement: Defiant (BGVP Foam) L
* Smoothing: 1/24 octave
* Frequency Step: 1/48 octave
* Start Frequency: 20.300 Hz
*
* Freq(Hz), SPL(dB), Phase(degrees)
20.299999, 81.146, 169.9121
20.600000, 81.129, 169.6104
20.900000, 81.107, 169.2707
21.200001, 81.085, 168.9294
21.400000, 81.070, 168.7040
21.799999, 81.045, 168.2652
22.000000, 81.032, 168.0559
22.400000, 81.008, 167.6649
22.700001, 80.989, 167.3952
23.000000, 80.970, 167.1375
23.299999, 80.950, 166.8789
23.600000, 80.930, 166.6061
24.000000, 80.905, 166.2077
24.299999, 80.885, 165.8847
24.700001, 80.860, 165.4400
25.000000, 80.841, 165.1122
25.400000, 80.818, 164.7014
25.799999, 80.795, 164.3280
26.200001, 80.772, 163.9867
26.500000, 80.752, 163.7445
26.900000, 80.724, 163.4290
27.200001, 80.701, 163.1914
27.600000, 80.670, 162.8665
28.000000, 80.640, 162.5296
28.500000, 80.604, 162.1002
29.000000, 80.570, 161.6833
29.500000, 80.537, 161.2914
30.000000, 80.504, 160.9097
30.400000, 80.478, 160.5933
30.700001, 80.457, 160.3461
31.100000, 80.426, 160.0105
31.500000, 80.394, 159.6857
32.000000, 80.355, 159.3175
32.500000, 80.319, 158.9921
33.000000, 80.286, 158.6864
33.500000, 80.251, 158.3800
34.000000, 80.212, 158.0688
34.500000, 80.170, 157.7538
35.000000, 80.129, 157.4311
35.500000, 80.092, 157.0992
36.000000, 80.056, 156.7688
36.500000, 80.022, 156.4538
37.000000, 79.990, 156.1526
37.500000, 79.958, 155.8486
38.200001, 79.912, 155.4067
38.700001, 79.875, 155.1014
39.500000, 79.816, 154.6740
40.000000, 79.780, 154.4250
40.599998, 79.736, 154.1082
41.200001, 79.685, 153.7725
41.799999, 79.632, 153.4422
42.500000, 79.578, 153.0679
43.099998, 79.539, 152.7417
43.700001, 79.499, 152.4193
44.400002, 79.449, 152.0775
45.000000, 79.404, 151.8059
45.500000, 79.368, 151.5725
46.200001, 79.315, 151.2263
46.799999, 79.267, 150.9304
47.500000, 79.212, 150.5995
48.200001, 79.160, 150.2722
48.700001, 79.123, 150.0397
49.400002, 79.072, 149.7338
50.000000, 79.027, 149.5015
50.799999, 78.964, 149.2207
51.500000, 78.911, 148.9650
52.200001, 78.859, 148.6844
53.000000, 78.801, 148.3780
53.799999, 78.744, 148.1221
54.500000, 78.699, 147.8863
55.200001, 78.657, 147.5936
56.000000, 78.608, 147.2500
57.000000, 78.545, 146.9341
58.000000, 78.470, 146.6208
59.000000, 78.379, 146.2066
60.000000, 78.298, 145.8573
60.799999, 78.248, 145.6484
61.500000, 78.204, 145.4666
62.200001, 78.153, 145.2746
63.000000, 78.096, 145.0524
64.000000, 78.030, 144.7668
65.000000, 77.962, 144.4725
66.000000, 77.893, 144.1700
67.000000, 77.827, 143.8809
68.000000, 77.769, 143.6181
69.000000, 77.713, 143.3542
70.000000, 77.644, 143.1283
71.000000, 77.560, 142.9336
72.000000, 77.478, 142.7230
73.000000, 77.419, 142.4860
74.000000, 77.365, 142.2623
75.000000, 77.305, 142.0754
76.199997, 77.232, 141.7726
77.500000, 77.148, 141.4571
78.800003, 77.066, 141.2351
80.000000, 76.992, 141.0220
81.199997, 76.915, 140.8147
82.500000, 76.834, 140.5588
83.800003, 76.756, 140.3301
85.000000, 76.690, 140.1744
86.199997, 76.625, 139.9729
87.500000, 76.555, 139.7353
88.500000, 76.497, 139.5620
90.000000, 76.403, 139.3518
91.199997, 76.331, 139.2085
92.500000, 76.260, 139.0347
93.800003, 76.196, 138.8548
95.000000, 76.138, 138.7139
96.199997, 76.071, 138.5795
97.500000, 75.995, 138.4234
98.800003, 75.925, 138.2943
100.000000, 75.865, 138.1667
101.500000, 75.793, 137.9753
103.000000, 75.718, 137.8275
104.400002, 75.646, 137.7178
106.000000, 75.564, 137.5947
107.500000, 75.490, 137.4553
109.000000, 75.425, 137.2991
110.599998, 75.354, 137.1469
112.000000, 75.286, 137.0253
113.800003, 75.202, 136.9250
115.000000, 75.150, 136.8742
117.199997, 75.050, 136.7298
118.000000, 75.013, 136.6740
120.599998, 74.894, 136.4782
122.000000, 74.832, 136.3603
124.099998, 74.738, 136.2603
125.000000, 74.699, 136.2228
126.500000, 74.636, 136.1541
128.000000, 74.575, 136.1015
131.500000, 74.446, 135.9874
132.000000, 74.428, 135.9688
134.000000, 74.350, 135.8804
136.000000, 74.272, 135.7642
138.000000, 74.201, 135.6731
140.000000, 74.129, 135.6355
143.000000, 74.014, 135.5204
145.000000, 73.937, 135.3947
147.500000, 73.848, 135.3372
150.000000, 73.771, 135.3190
152.500000, 73.688, 135.2557
155.000000, 73.607, 135.2018
157.500000, 73.530, 135.2039
160.000000, 73.452, 135.1936
162.500000, 73.376, 135.1531
165.000000, 73.302, 135.1172
167.500000, 73.227, 135.0948
170.000000, 73.158, 135.0926
172.500000, 73.091, 135.0578
175.000000, 73.023, 135.0136
177.500000, 72.958, 135.0213
180.000000, 72.895, 135.0681
182.500000, 72.832, 135.0831
185.000000, 72.774, 135.0381
187.500000, 72.719, 135.0266
190.000000, 72.659, 135.0314
192.500000, 72.598, 135.0428
195.000000, 72.542, 135.0439
197.500000, 72.493, 135.0042
200.000000, 72.444, 134.9937
203.000000, 72.378, 135.0452
206.000000, 72.317, 135.0845
209.000000, 72.257, 135.0775
212.000000, 72.194, 135.0621
214.000000, 72.156, 135.0688
218.000000, 72.083, 135.1750
220.000000, 72.047, 135.2371
224.000000, 71.984, 135.2869
227.000000, 71.938, 135.2633
230.000000, 71.892, 135.2583
233.000000, 71.844, 135.2999
236.000000, 71.794, 135.3266
240.000000, 71.728, 135.3477
243.000000, 71.684, 135.3855
247.000000, 71.628, 135.4624
250.000000, 71.587, 135.5710
254.000000, 71.531, 135.6208
258.000000, 71.482, 135.5880
262.000000, 71.443, 135.6353
265.000000, 71.412, 135.6944
269.000000, 71.363, 135.7555
272.000000, 71.324, 135.8093
276.000000, 71.277, 135.8668
280.000000, 71.236, 135.8784
285.000000, 71.189, 135.9164
290.000000, 71.144, 136.0049
295.000000, 71.104, 136.1032
300.000000, 71.057, 136.0974
304.000000, 71.028, 136.1265
307.000000, 71.006, 136.1825
311.000000, 70.980, 136.2973
315.000000, 70.957, 136.3818
320.000000, 70.922, 136.4362
325.000000, 70.894, 136.4958
330.000000, 70.863, 136.5666
335.000000, 70.828, 136.6389
340.000000, 70.799, 136.6566
345.000000, 70.776, 136.6988
350.000000, 70.751, 136.7988
355.000000, 70.727, 136.9222
360.000000, 70.706, 137.0159
365.000000, 70.690, 137.1110
370.000000, 70.673, 137.2194
375.000000, 70.651, 137.3206
382.000000, 70.629, 137.4182
387.000000, 70.613, 137.5062
395.000000, 70.589, 137.6281
400.000000, 70.584, 137.7122
406.000000, 70.579, 137.7914
412.000000, 70.570, 137.9167
418.000000, 70.558, 138.0825
425.000000, 70.547, 138.2575
431.000000, 70.551, 138.3824
437.000000, 70.560, 138.4887
444.000000, 70.567, 138.6379
450.000000, 70.568, 138.7774
455.000000, 70.572, 138.8900
462.000000, 70.586, 139.0380
468.000000, 70.597, 139.1418
475.000000, 70.613, 139.2530
482.000000, 70.634, 139.2774
487.000000, 70.647, 139.2886
494.000000, 70.661, 139.3485
500.000000, 70.669, 139.4204
508.000000, 70.678, 139.4793
515.000000, 70.689, 139.5495
522.000000, 70.703, 139.5860
530.000000, 70.716, 139.6492
538.000000, 70.722, 139.7213
545.000000, 70.731, 139.7941
552.000000, 70.743, 139.8805
560.000000, 70.757, 139.9879
570.000000, 70.771, 140.1382
580.000000, 70.785, 140.3262
590.000000, 70.798, 140.5326
600.000000, 70.818, 140.7021
608.000000, 70.837, 140.8372
615.000000, 70.848, 140.9828
622.000000, 70.855, 141.1435
630.000000, 70.866, 141.3156
640.000000, 70.887, 141.5582
650.000000, 70.908, 141.7956
660.000000, 70.925, 142.0117
670.000000, 70.940, 142.2664
680.000000, 70.962, 142.5283
690.000000, 70.992, 142.8108
700.000000, 71.019, 143.0957
710.000000, 71.044, 143.4057
720.000000, 71.075, 143.7670
730.000000, 71.109, 144.1086
740.000000, 71.138, 144.4022
750.000000, 71.168, 144.7258
762.000000, 71.207, 145.1888
775.000000, 71.250, 145.6916
788.000000, 71.295, 146.1908
800.000000, 71.342, 146.6697
812.000000, 71.391, 147.1376
825.000000, 71.448, 147.6910
838.000000, 71.507, 148.2337
850.000000, 71.567, 148.7192
862.000000, 71.634, 149.2002
875.000000, 71.705, 149.7692
885.000000, 71.757, 150.2160
900.000000, 71.836, 150.8934
912.000000, 71.909, 151.4147
925.000000, 71.996, 151.9681
938.000000, 72.083, 152.5209
950.000000, 72.164, 153.0301
962.000000, 72.246, 153.5480
975.000000, 72.337, 154.0925
988.000000, 72.431, 154.5853
1000.000000, 72.522, 155.0467
1015.000000, 72.647, 155.5507
1030.000000, 72.771, 156.0638
1044.000000, 72.881, 156.5680
1060.000000, 73.014, 157.0915
1075.000000, 73.140, 157.5312
1090.000000, 73.263, 157.9476
1106.000000, 73.399, 158.3618
1120.000000, 73.518, 158.6946
1138.000000, 73.669, 159.1072
1150.000000, 73.766, 159.3944
1172.000000, 73.949, 159.8416
1180.000000, 74.017, 159.9691
1206.000000, 74.232, 160.3413
1220.000000, 74.346, 160.5017
1241.000000, 74.512, 160.6771
1250.000000, 74.581, 160.7426
1265.000000, 74.693, 160.8416
1280.000000, 74.799, 160.9067
1315.000000, 75.030, 160.9727
1320.000000, 75.061, 160.9784
1340.000000, 75.178, 160.9947
1360.000000, 75.284, 161.0104
1380.000000, 75.384, 161.0269
1400.000000, 75.474, 161.0530
1430.000000, 75.597, 161.1455
1450.000000, 75.677, 161.2290
1475.000000, 75.769, 161.3607
1500.000000, 75.857, 161.5446
1525.000000, 75.942, 161.7742
1550.000000, 76.027, 162.0165
1575.000000, 76.108, 162.2715
1600.000000, 76.185, 162.5234
1625.000000, 76.263, 162.8144
1650.000000, 76.342, 163.1286
1675.000000, 76.420, 163.4477
1700.000000, 76.498, 163.7943
1725.000000, 76.576, 164.1542
1750.000000, 76.657, 164.5069
1775.000000, 76.740, 164.8400
1800.000000, 76.822, 165.1985
1825.000000, 76.903, 165.5468
1850.000000, 76.985, 165.8858
1875.000000, 77.072, 166.2057
1900.000000, 77.158, 166.5145
1925.000000, 77.244, 166.8099
1950.000000, 77.330, 167.0912
1975.000000, 77.416, 167.3732
2000.000000, 77.502, 167.6511
2030.000000, 77.608, 167.9252
2060.000000, 77.714, 168.1616
2090.000000, 77.817, 168.3734
2120.000000, 77.917, 168.5542
2140.000000, 77.985, 168.6514
2180.000000, 78.121, 168.7811
2200.000000, 78.185, 168.8251
2240.000000, 78.307, 168.8813
2270.000000, 78.396, 168.8670
2300.000000, 78.481, 168.8096
2330.000000, 78.559, 168.7163
2360.000000, 78.633, 168.5836
2400.000000, 78.723, 168.3486
2430.000000, 78.782, 168.1430
2470.000000, 78.848, 167.8158
2500.000000, 78.887, 167.5414
2540.000000, 78.928, 167.1452
2580.000000, 78.955, 166.7304
2620.000000, 78.964, 166.3046
2650.000000, 78.961, 165.9760
2690.000000, 78.945, 165.5376
2720.000000, 78.924, 165.2300
2760.000000, 78.887, 164.8465
2800.000000, 78.835, 164.4932
2850.000000, 78.750, 164.1235
2900.000000, 78.652, 163.8024
2950.000000, 78.543, 163.5590
3000.000000, 78.422, 163.4038
3040.000000, 78.322, 163.3375
3070.000000, 78.244, 163.3315
3110.000000, 78.139, 163.3823
3150.000000, 78.033, 163.4831
3200.000000, 77.899, 163.6807
3250.000000, 77.763, 163.9455
3300.000000, 77.631, 164.2568
3350.000000, 77.504, 164.6380
3400.000000, 77.386, 165.0686
3450.000000, 77.273, 165.5323
3500.000000, 77.168, 166.0060
3550.000000, 77.070, 166.5006
3600.000000, 76.976, 166.9764
3650.000000, 76.888, 167.4275
3700.000000, 76.806, 167.8627
3750.000000, 76.729, 168.2586
3820.000000, 76.621, 168.7718
3870.000000, 76.543, 169.0950
3950.000000, 76.408, 169.5835
4000.000000, 76.320, 169.9425
4060.000000, 76.218, 170.5045
4120.000000, 76.151, 171.2172
4180.000000, 76.149, 171.8934
4250.000000, 76.224, 172.0789
4310.000000, 76.283, 171.4951
4370.000000, 76.299, 170.4852
4440.000000, 76.247, 168.7362
4500.000000, 76.092, 166.8946
4550.000000, 75.867, 165.4358
4620.000000, 75.426, 163.9808
4680.000000, 74.991, 163.5556
4750.000000, 74.500, 164.0318
4820.000000, 74.086, 165.1982
4870.000000, 73.847, 166.1744
4940.000000, 73.584, 167.5491
5000.000000, 73.409, 168.6635
5080.000000, 73.213, 169.9276
5150.000000, 73.057, 170.8433
5220.000000, 72.912, 171.6636
5300.000000, 72.757, 172.5392
5380.000000, 72.611, 173.3781
5450.000000, 72.495, 174.1104
5520.000000, 72.394, 174.8450
5600.000000, 72.293, 175.6284
5700.000000, 72.198, 176.5470
5800.000000, 72.144, 177.3563
5900.000000, 72.121, 178.0502
6000.000000, 72.116, 178.5923
6080.000000, 72.119, 178.9561
6150.000000, 72.123, 179.2443
6220.000000, 72.128, 179.5337
6300.000000, 72.134, 179.9618
6400.000000, 72.154, -179.2411
6500.000000, 72.236, -178.0764
6600.000000, 72.426, -176.6691
6700.000000, 72.748, -175.2773
6800.000000, 73.197, -174.2529
6900.000000, 73.757, -173.8844
7000.000000, 74.401, -174.3852
7100.000000, 75.079, -175.9238
7200.000000, 75.741, -178.5214
7300.000000, 76.338, 177.8370
7400.000000, 76.817, 173.3648
7500.000000, 77.145, 168.3692
7620.000000, 77.325, 162.1964
7750.000000, 77.287, 155.9170
7880.000000, 77.083, 150.5041
8000.000000, 76.823, 146.4059
8120.000000, 76.541, 143.0313
8250.000000, 76.240, 139.8870
8380.000000, 75.951, 136.9959
8500.000000, 75.672, 134.3813
8620.000000, 75.354, 131.8037
8750.000000, 74.939, 129.0878
8850.000000, 74.551, 127.1490
9000.000000, 73.855, 124.7719
9120.000000, 73.208, 123.5540
9250.000000, 72.445, 123.1488
9380.000000, 71.655, 123.8251
9500.000000, 70.940, 125.3727
9620.000000, 70.265, 127.7588
9750.000000, 69.612, 131.1594
9880.000000, 69.062, 135.2417
10000.000000, 68.662, 139.4184
10150.000000, 68.306, 144.9006
10300.000000, 68.096, 150.3695
10440.000000, 68.008, 155.2415
10600.000000, 67.995, 160.4979
10750.000000, 68.029, 165.1068
10900.000000, 68.093, 169.3838
11060.000000, 68.191, 173.6968
11200.000000, 68.294, 177.4314
11380.000000, 68.461, -177.7919
11500.000000, 68.601, -174.6918
11720.000000, 68.915, -169.2119
11800.000000, 69.051, -167.2548
12060.000000, 69.615, -161.3843
12200.000000, 69.986, -158.7716
12410.000000, 70.592, -155.6641
12500.000000, 70.857, -154.7239
12650.000000, 71.290, -153.7422
12800.000000, 71.689, -153.4760
13150.000000, 72.345, -154.9980
13200.000000, 72.394, -155.3771
13400.000000, 72.458, -156.9420
13600.000000, 72.342, -158.0997
13800.000000, 72.125, -158.3781
14000.000000, 71.912, -157.8295
14300.000000, 71.688, -156.4401
14500.000000, 71.594, -155.3815
14750.000000, 71.573, -153.9907
15000.000000, 71.712, -153.0771
15250.000000, 72.012, -153.5872
15500.000000, 72.365, -156.4692
15750.000000, 72.524, -162.4037
16000.000000, 72.135, -170.6358
16250.000000, 70.964, -178.1726
16500.000000, 69.201, 178.9883
16750.000000, 67.607, -178.0557
17000.000000, 66.733, -175.1639
17250.000000, 65.905, -176.4105
17500.000000, 64.422, -178.3419
17750.000000, 62.331, -176.9626
18000.000000, 59.947, -169.0928
18250.000000, 58.286, -151.0957
18500.000000, 58.470, -137.7922
18750.000000, 58.549, -139.7494
19000.000000, 57.272, -144.5901
19250.000000, 55.158, -145.7606
19500.000000, 52.821, -144.1330
19750.000000, 50.628, -141.6410
