* Measurement data measured by REW V5.31.3
* Source: Input device not selected, no input selected, L, volume: no control
* Format: 256k Log Swept Sine, 1 sweep at -12.0 dBFS with no timing reference
* Dated: Sep 2, 2024 1:32:56 PM
* REW Settings:
*  C-weighting compensation: Off
*  Target level: 75.0 dB
* Note: ; 
* Measurement: E500 (Final E M) L
* Smoothing: 1/24 octave
* Frequency Step: 1/48 octave
* Start Frequency: 20.300 Hz
*
* Freq(Hz), SPL(dB), Phase(degrees)
20.299999, 73.668, -115.2728
20.600000, 73.762, -115.6692
20.900000, 73.862, -116.1275
21.200001, 73.953, -116.6194
21.400000, 74.008, -116.9564
21.799999, 74.108, -117.6173
22.000000, 74.156, -117.9277
22.400000, 74.256, -118.4991
22.700001, 74.339, -118.9018
23.000000, 74.428, -119.3094
23.299999, 74.518, -119.7419
23.600000, 74.604, -120.2040
24.000000, 74.702, -120.8451
24.299999, 74.763, -121.3187
24.700001, 74.833, -121.9117
25.000000, 74.884, -122.3249
25.400000, 74.958, -122.8516
25.799999, 75.040, -123.3748
26.200001, 75.127, -123.9052
26.500000, 75.193, -124.3026
26.900000, 75.277, -124.8203
27.200001, 75.337, -125.1950
27.600000, 75.411, -125.6790
28.000000, 75.481, -126.1533
28.500000, 75.567, -126.7427
29.000000, 75.653, -127.3283
29.500000, 75.741, -127.9016
30.000000, 75.827, -128.4537
30.400000, 75.892, -128.8761
30.700001, 75.938, -129.1817
31.100000, 75.996, -129.5772
31.500000, 76.052, -129.9651
32.000000, 76.121, -130.4506
32.500000, 76.191, -130.9480
33.000000, 76.261, -131.4649
33.500000, 76.326, -132.0038
34.000000, 76.383, -132.5580
34.500000, 76.435, -133.1147
35.000000, 76.486, -133.6637
35.500000, 76.541, -134.2018
36.000000, 76.600, -134.7206
36.500000, 76.656, -135.1978
37.000000, 76.706, -135.6139
37.500000, 76.754, -135.9824
38.200001, 76.821, -136.5141
38.700001, 76.866, -136.9574
39.500000, 76.930, -137.7166
40.000000, 76.967, -138.1470
40.599998, 77.018, -138.6002
41.200001, 77.076, -139.0416
41.799999, 77.134, -139.5231
42.500000, 77.191, -140.1224
43.099998, 77.231, -140.6161
43.700001, 77.268, -141.0655
44.400002, 77.311, -141.5550
45.000000, 77.348, -141.9787
45.500000, 77.378, -142.3435
46.200001, 77.417, -142.8594
46.799999, 77.451, -143.2902
47.500000, 77.491, -143.7715
48.200001, 77.527, -144.2319
48.700001, 77.550, -144.5510
49.400002, 77.578, -144.9948
50.000000, 77.599, -145.3829
50.799999, 77.629, -145.9085
51.500000, 77.658, -146.3551
52.200001, 77.691, -146.7773
53.000000, 77.725, -147.2357
53.799999, 77.754, -147.6731
54.500000, 77.776, -148.0463
55.200001, 77.800, -148.4297
56.000000, 77.826, -148.8943
57.000000, 77.851, -149.4627
58.000000, 77.868, -149.9334
59.000000, 77.889, -150.3724
60.000000, 77.914, -150.8660
60.799999, 77.935, -151.2742
61.500000, 77.954, -151.6239
62.200001, 77.970, -151.9616
63.000000, 77.984, -152.3324
64.000000, 77.990, -152.7606
65.000000, 77.988, -153.1115
66.000000, 78.001, -153.5005
67.000000, 78.020, -153.9845
68.000000, 78.040, -154.4075
69.000000, 78.059, -154.8028
70.000000, 78.066, -155.1990
71.000000, 78.072, -155.5591
72.000000, 78.074, -155.9002
73.000000, 78.077, -156.2430
74.000000, 78.089, -156.6261
75.000000, 78.100, -156.9759
76.199997, 78.108, -157.3362
77.500000, 78.116, -157.7730
78.800003, 78.120, -158.1864
80.000000, 78.120, -158.5104
81.199997, 78.126, -158.8421
82.500000, 78.131, -159.2167
83.800003, 78.128, -159.5792
85.000000, 78.122, -159.9103
86.199997, 78.117, -160.2426
87.500000, 78.111, -160.5741
88.500000, 78.105, -160.8011
90.000000, 78.099, -161.1239
91.199997, 78.098, -161.4042
92.500000, 78.094, -161.6855
93.800003, 78.088, -161.9434
95.000000, 78.079, -162.1756
96.199997, 78.073, -162.4221
97.500000, 78.066, -162.6778
98.800003, 78.057, -162.9046
100.000000, 78.048, -163.1273
101.500000, 78.042, -163.4014
103.000000, 78.032, -163.6702
104.400002, 78.020, -163.9393
106.000000, 78.004, -164.2266
107.500000, 77.990, -164.4322
109.000000, 77.976, -164.6361
110.599998, 77.963, -164.8718
112.000000, 77.950, -165.0665
113.800003, 77.931, -165.2512
115.000000, 77.919, -165.3994
117.199997, 77.899, -165.7435
118.000000, 77.893, -165.8400
120.599998, 77.868, -166.1672
122.000000, 77.846, -166.3095
124.099998, 77.823, -166.5213
125.000000, 77.814, -166.6139
126.500000, 77.799, -166.7438
128.000000, 77.785, -166.8530
131.500000, 77.745, -167.2058
132.000000, 77.739, -167.2550
134.000000, 77.715, -167.3929
136.000000, 77.691, -167.5141
138.000000, 77.667, -167.6605
140.000000, 77.646, -167.7720
143.000000, 77.610, -167.8952
145.000000, 77.585, -167.9870
147.500000, 77.553, -168.1492
150.000000, 77.525, -168.3098
152.500000, 77.493, -168.4149
155.000000, 77.463, -168.4985
157.500000, 77.434, -168.5798
160.000000, 77.398, -168.6508
162.500000, 77.366, -168.6969
165.000000, 77.338, -168.7472
167.500000, 77.308, -168.7990
170.000000, 77.276, -168.8415
172.500000, 77.248, -168.8763
175.000000, 77.220, -168.9210
177.500000, 77.188, -168.9675
180.000000, 77.158, -168.9741
182.500000, 77.131, -168.9704
185.000000, 77.102, -168.9715
187.500000, 77.070, -168.9727
190.000000, 77.040, -168.9597
192.500000, 77.013, -168.9395
195.000000, 76.985, -168.9081
197.500000, 76.956, -168.8696
200.000000, 76.930, -168.8422
203.000000, 76.897, -168.8184
206.000000, 76.863, -168.7574
209.000000, 76.830, -168.7116
212.000000, 76.798, -168.6543
214.000000, 76.775, -168.5940
218.000000, 76.731, -168.5032
220.000000, 76.710, -168.4707
224.000000, 76.671, -168.3781
227.000000, 76.641, -168.2989
230.000000, 76.607, -168.2395
233.000000, 76.574, -168.1513
236.000000, 76.548, -168.0730
240.000000, 76.513, -167.9310
243.000000, 76.483, -167.8133
247.000000, 76.444, -167.6684
250.000000, 76.413, -167.5369
254.000000, 76.372, -167.3563
258.000000, 76.335, -167.1824
262.000000, 76.301, -167.0458
265.000000, 76.275, -166.9384
269.000000, 76.238, -166.8013
272.000000, 76.212, -166.6768
276.000000, 76.178, -166.4960
280.000000, 76.143, -166.3225
285.000000, 76.099, -166.0745
290.000000, 76.055, -165.8258
295.000000, 76.013, -165.5861
300.000000, 75.975, -165.3522
304.000000, 75.942, -165.1507
307.000000, 75.919, -165.0125
311.000000, 75.885, -164.8332
315.000000, 75.850, -164.6269
320.000000, 75.810, -164.3594
325.000000, 75.772, -164.1094
330.000000, 75.735, -163.8673
335.000000, 75.698, -163.6001
340.000000, 75.661, -163.3046
345.000000, 75.622, -163.0321
350.000000, 75.584, -162.8113
355.000000, 75.546, -162.5688
360.000000, 75.508, -162.3236
365.000000, 75.471, -162.0766
370.000000, 75.430, -161.8131
375.000000, 75.386, -161.5472
382.000000, 75.326, -161.2040
387.000000, 75.283, -160.9433
395.000000, 75.210, -160.5013
400.000000, 75.157, -160.1914
406.000000, 75.095, -159.7589
412.000000, 75.038, -159.2775
418.000000, 74.984, -158.7641
425.000000, 74.926, -158.1426
431.000000, 74.890, -157.6164
437.000000, 74.856, -157.1149
444.000000, 74.824, -156.5552
450.000000, 74.796, -156.0998
455.000000, 74.772, -155.7313
462.000000, 74.738, -155.2158
468.000000, 74.708, -154.8064
475.000000, 74.673, -154.3280
482.000000, 74.635, -153.8339
487.000000, 74.610, -153.4882
494.000000, 74.574, -153.0096
500.000000, 74.540, -152.6033
508.000000, 74.495, -152.0335
515.000000, 74.458, -151.5296
522.000000, 74.422, -151.0506
530.000000, 74.379, -150.4879
538.000000, 74.336, -149.9204
545.000000, 74.300, -149.4259
552.000000, 74.264, -148.9251
560.000000, 74.223, -148.3571
570.000000, 74.169, -147.6170
580.000000, 74.118, -146.8252
590.000000, 74.069, -146.0553
600.000000, 74.023, -145.3143
608.000000, 73.984, -144.7089
615.000000, 73.949, -144.1800
622.000000, 73.916, -143.6341
630.000000, 73.878, -143.0185
640.000000, 73.832, -142.2404
650.000000, 73.790, -141.4429
660.000000, 73.751, -140.6406
670.000000, 73.711, -139.8214
680.000000, 73.668, -138.9971
690.000000, 73.626, -138.2061
700.000000, 73.592, -137.3908
710.000000, 73.560, -136.5470
720.000000, 73.528, -135.7142
730.000000, 73.499, -134.8760
740.000000, 73.469, -134.0355
750.000000, 73.438, -133.2085
762.000000, 73.406, -132.2418
775.000000, 73.373, -131.1960
788.000000, 73.339, -130.0865
800.000000, 73.309, -129.0726
812.000000, 73.280, -128.0486
825.000000, 73.250, -126.8809
838.000000, 73.231, -125.7164
850.000000, 73.222, -124.6468
862.000000, 73.215, -123.5639
875.000000, 73.214, -122.4320
885.000000, 73.212, -121.5925
900.000000, 73.204, -120.3234
912.000000, 73.207, -119.2263
925.000000, 73.231, -117.9703
938.000000, 73.287, -116.7708
950.000000, 73.359, -115.8658
962.000000, 73.429, -115.2510
975.000000, 73.475, -114.8506
988.000000, 73.479, -114.5644
1000.000000, 73.446, -114.2541
1015.000000, 73.365, -113.6595
1030.000000, 73.249, -112.8149
1044.000000, 73.129, -111.7137
1060.000000, 73.005, -110.0734
1075.000000, 72.922, -108.1769
1090.000000, 72.894, -106.0805
1106.000000, 72.925, -103.8522
1120.000000, 72.993, -102.0051
1138.000000, 73.120, -99.8556
1150.000000, 73.220, -98.6039
1172.000000, 73.422, -96.6271
1180.000000, 73.495, -95.9880
1206.000000, 73.730, -94.1918
1220.000000, 73.849, -93.3785
1241.000000, 74.015, -92.3113
1250.000000, 74.083, -91.8938
1265.000000, 74.191, -91.2249
1280.000000, 74.291, -90.5988
1315.000000, 74.502, -89.3032
1320.000000, 74.529, -89.1289
1340.000000, 74.627, -88.4470
1360.000000, 74.717, -87.7957
1380.000000, 74.800, -87.1579
1400.000000, 74.878, -86.5177
1430.000000, 74.984, -85.5934
1450.000000, 75.045, -84.9872
1475.000000, 75.114, -84.2296
1500.000000, 75.174, -83.4740
1525.000000, 75.231, -82.6895
1550.000000, 75.285, -81.9029
1575.000000, 75.337, -81.1214
1600.000000, 75.386, -80.3376
1625.000000, 75.431, -79.5444
1650.000000, 75.475, -78.7426
1675.000000, 75.517, -77.9378
1700.000000, 75.561, -77.1295
1725.000000, 75.606, -76.3153
1750.000000, 75.649, -75.5038
1775.000000, 75.690, -74.7117
1800.000000, 75.730, -73.9175
1825.000000, 75.774, -73.1149
1850.000000, 75.817, -72.3354
1875.000000, 75.859, -71.5633
1900.000000, 75.901, -70.8010
1925.000000, 75.945, -70.0408
1950.000000, 75.986, -69.2798
1975.000000, 76.029, -68.5185
2000.000000, 76.073, -67.7847
2030.000000, 76.125, -66.9504
2060.000000, 76.175, -66.1067
2090.000000, 76.225, -65.2710
2120.000000, 76.273, -64.4522
2140.000000, 76.304, -63.9134
2180.000000, 76.366, -62.8483
2200.000000, 76.396, -62.3169
2240.000000, 76.453, -61.2535
2270.000000, 76.494, -60.4472
2300.000000, 76.536, -59.6148
2330.000000, 76.583, -58.7372
2360.000000, 76.634, -57.8155
2400.000000, 76.715, -56.5549
2430.000000, 76.792, -55.6172
2470.000000, 76.920, -54.4395
2500.000000, 77.036, -53.6635
2540.000000, 77.208, -52.8391
2580.000000, 77.380, -52.3262
2620.000000, 77.531, -52.0823
2650.000000, 77.624, -52.0211
2690.000000, 77.719, -52.0007
2720.000000, 77.771, -51.9831
2760.000000, 77.823, -51.9412
2800.000000, 77.863, -51.8872
2850.000000, 77.899, -51.7820
2900.000000, 77.924, -51.6582
2950.000000, 77.938, -51.5324
3000.000000, 77.935, -51.3966
3040.000000, 77.925, -51.2867
3070.000000, 77.914, -51.1927
3110.000000, 77.892, -51.0461
3150.000000, 77.863, -50.8859
3200.000000, 77.821, -50.6630
3250.000000, 77.770, -50.4137
3300.000000, 77.714, -50.1315
3350.000000, 77.653, -49.8185
3400.000000, 77.582, -49.4604
3450.000000, 77.507, -49.0673
3500.000000, 77.430, -48.6440
3550.000000, 77.348, -48.1888
3600.000000, 77.267, -47.6975
3650.000000, 77.185, -47.1772
3700.000000, 77.101, -46.6329
3750.000000, 77.016, -46.0842
3820.000000, 76.893, -45.2857
3870.000000, 76.803, -44.6988
3950.000000, 76.648, -43.7566
4000.000000, 76.545, -43.1222
4060.000000, 76.414, -42.2776
4120.000000, 76.280, -41.3512
4180.000000, 76.146, -40.3304
4250.000000, 75.998, -39.0147
4310.000000, 75.882, -37.7906
4370.000000, 75.775, -36.5012
4440.000000, 75.667, -34.9759
4500.000000, 75.586, -33.6673
4550.000000, 75.525, -32.5773
4620.000000, 75.450, -31.0447
4680.000000, 75.396, -29.7222
4750.000000, 75.346, -28.1854
4820.000000, 75.310, -26.6739
4870.000000, 75.295, -25.6409
4940.000000, 75.284, -24.2399
5000.000000, 75.279, -23.1002
5080.000000, 75.285, -21.6761
5150.000000, 75.295, -20.5165
5220.000000, 75.304, -19.4462
5300.000000, 75.310, -18.3237
5380.000000, 75.316, -17.3034
5450.000000, 75.318, -16.4841
5520.000000, 75.315, -15.7262
5600.000000, 75.306, -14.9118
5700.000000, 75.289, -13.9446
5800.000000, 75.265, -13.0361
5900.000000, 75.238, -12.1447
6000.000000, 75.213, -11.3390
6080.000000, 75.193, -10.8117
6150.000000, 75.171, -10.4453
6220.000000, 75.138, -10.1474
6300.000000, 75.085, -9.8760
6400.000000, 74.997, -9.6052
6500.000000, 74.883, -9.3920
6600.000000, 74.746, -9.1977
6700.000000, 74.580, -8.9656
6800.000000, 74.391, -8.6881
6900.000000, 74.186, -8.3203
7000.000000, 73.962, -7.8327
7100.000000, 73.724, -7.2018
7200.000000, 73.482, -6.4665
7300.000000, 73.243, -5.6760
7400.000000, 72.999, -4.8222
7500.000000, 72.748, -3.8686
7620.000000, 72.442, -2.5836
7750.000000, 72.111, -1.0245
7880.000000, 71.787, 0.7260
8000.000000, 71.502, 2.4933
8120.000000, 71.230, 4.4103
8250.000000, 70.948, 6.6164
8380.000000, 70.692, 8.9393
8500.000000, 70.485, 11.1829
8620.000000, 70.301, 13.5375
8750.000000, 70.126, 16.1705
8850.000000, 70.016, 18.2538
9000.000000, 69.898, 21.4374
9120.000000, 69.845, 24.0516
9250.000000, 69.821, 26.8766
9380.000000, 69.836, 29.6754
9500.000000, 69.871, 32.3869
9620.000000, 69.990, 35.7896
9750.000000, 70.436, 39.6206
9880.000000, 71.015, 40.7957
10000.000000, 71.382, 40.8534
10150.000000, 71.779, 41.0196
10300.000000, 72.202, 40.8988
10440.000000, 72.625, 40.1865
10600.000000, 73.111, 38.3902
10750.000000, 73.511, 35.6684
10900.000000, 73.803, 32.0696
11060.000000, 73.945, 27.5259
11200.000000, 73.898, 23.2457
11380.000000, 73.597, 17.9249
11500.000000, 73.267, 14.8782
11720.000000, 72.520, 10.7678
11800.000000, 72.239, 9.6910
12060.000000, 71.357, 7.1990
12200.000000, 70.896, 6.2923
12410.000000, 70.223, 5.3608
12500.000000, 69.942, 5.0946
12650.000000, 69.492, 4.7751
12800.000000, 69.063, 4.5787
13150.000000, 68.140, 4.4257
13200.000000, 68.016, 4.4138
13400.000000, 67.537, 4.3277
13600.000000, 67.089, 4.0948
13800.000000, 66.657, 3.6616
14000.000000, 66.219, 3.0471
14300.000000, 65.547, 1.6857
14500.000000, 65.082, 0.5494
14750.000000, 64.446, -1.0639
15000.000000, 63.726, -2.7239
15250.000000, 62.925, -4.2487
15500.000000, 62.085, -5.4180
15750.000000, 61.212, -6.1802
16000.000000, 60.323, -6.5153
16250.000000, 59.428, -6.5223
16500.000000, 58.543, -5.9568
16750.000000, 57.649, -4.9743
17000.000000, 56.801, -3.7848
17250.000000, 55.983, -2.3532
17500.000000, 55.149, -0.4690
17750.000000, 54.293, 1.7258
18000.000000, 53.394, 4.2470
18250.000000, 52.535, 7.5444
18500.000000, 51.746, 11.7495
18750.000000, 51.071, 16.5406
19000.000000, 50.460, 21.2842
19250.000000, 49.905, 25.6073
19500.000000, 49.401, 29.6589
19750.000000, 48.962, 33.3389
20000.000000, 48.721, 35.8684
