* Measurement data measured by REW V5.31.3
* Source: Input device not selected, no input selected, L, volume: no control
* Format: 256k Log Swept Sine, 1 sweep at -11.0 dBFS with no timing reference
* Dated: Jul 23, 2025 4:08:15 AM
* REW Settings:
*  C-weighting compensation: Off
*  Target level: 75.0 dB
* Note: ; 
* Measurement: EA500LM (Azla Foamax) L
* Smoothing: 1/24 octave
* Frequency Step: 1/48 octave
* Start Frequency: 20.300 Hz
*
* Freq(Hz), SPL(dB), Phase(degrees)
20.299999, 84.147, -157.4446
20.600000, 84.157, -157.9148
20.900000, 84.168, -158.4289
21.200001, 84.178, -158.9322
21.400000, 84.186, -159.2634
21.799999, 84.200, -159.9283
22.000000, 84.207, -160.2651
22.400000, 84.215, -160.9431
22.700001, 84.217, -161.4434
23.000000, 84.215, -161.9241
23.299999, 84.214, -162.3792
23.600000, 84.215, -162.8106
24.000000, 84.221, -163.3645
24.299999, 84.229, -163.7767
24.700001, 84.239, -164.3313
25.000000, 84.244, -164.7479
25.400000, 84.246, -165.2928
25.799999, 84.243, -165.8171
26.200001, 84.239, -166.3245
26.500000, 84.236, -166.7010
26.900000, 84.234, -167.2040
27.200001, 84.233, -167.5808
27.600000, 84.230, -168.0741
28.000000, 84.225, -168.5473
28.500000, 84.219, -169.1080
29.000000, 84.212, -169.6504
29.500000, 84.204, -170.1910
30.000000, 84.196, -170.7292
30.400000, 84.188, -171.1490
30.700001, 84.182, -171.4536
31.100000, 84.173, -171.8454
31.500000, 84.163, -172.2242
32.000000, 84.149, -172.6887
32.500000, 84.133, -173.1523
33.000000, 84.118, -173.6178
33.500000, 84.103, -174.0798
34.000000, 84.088, -174.5290
34.500000, 84.072, -174.9588
35.000000, 84.056, -175.3689
35.500000, 84.038, -175.7654
36.000000, 84.021, -176.1566
36.500000, 84.005, -176.5484
37.000000, 83.988, -176.9397
37.500000, 83.970, -177.3218
38.200001, 83.941, -177.8251
38.700001, 83.919, -178.1653
39.500000, 83.886, -178.7124
40.000000, 83.865, -179.0634
40.599998, 83.839, -179.4744
41.200001, 83.813, -179.8579
41.799999, 83.789, 179.7746
42.500000, 83.761, 179.3396
43.099998, 83.735, 178.9661
43.700001, 83.707, 178.6112
44.400002, 83.675, 178.2205
45.000000, 83.648, 177.8885
45.500000, 83.624, 177.6105
46.200001, 83.589, 177.2305
46.799999, 83.561, 176.9203
47.500000, 83.528, 176.5736
48.200001, 83.496, 176.2391
48.700001, 83.473, 176.0058
49.400002, 83.441, 175.6831
50.000000, 83.411, 175.4113
50.799999, 83.370, 175.0615
51.500000, 83.333, 174.7604
52.200001, 83.298, 174.4604
53.000000, 83.262, 174.1350
53.799999, 83.227, 173.8319
54.500000, 83.191, 173.5782
55.200001, 83.150, 173.3298
56.000000, 83.106, 173.0063
57.000000, 83.050, 172.5312
58.000000, 82.990, 172.2199
59.000000, 82.946, 172.0361
60.000000, 82.901, 171.7266
60.799999, 82.858, 171.4576
61.500000, 82.822, 171.2509
62.200001, 82.787, 171.0573
63.000000, 82.742, 170.8461
64.000000, 82.685, 170.5890
65.000000, 82.634, 170.3242
66.000000, 82.583, 170.0680
67.000000, 82.529, 169.8268
68.000000, 82.477, 169.5876
69.000000, 82.425, 169.3631
70.000000, 82.374, 169.1692
71.000000, 82.325, 168.9732
72.000000, 82.275, 168.7791
73.000000, 82.226, 168.6014
74.000000, 82.175, 168.4177
75.000000, 82.125, 168.2501
76.199997, 82.065, 168.0933
77.500000, 81.999, 167.9229
78.800003, 81.931, 167.7189
80.000000, 81.869, 167.5432
81.199997, 81.812, 167.3907
82.500000, 81.749, 167.2458
83.800003, 81.683, 167.0935
85.000000, 81.623, 166.9589
86.199997, 81.566, 166.8569
87.500000, 81.503, 166.7849
88.500000, 81.454, 166.7386
90.000000, 81.382, 166.6357
91.199997, 81.327, 166.5262
92.500000, 81.266, 166.4355
93.800003, 81.205, 166.3638
95.000000, 81.150, 166.3138
96.199997, 81.095, 166.2480
97.500000, 81.031, 166.1929
98.800003, 80.973, 166.1705
100.000000, 80.921, 166.1494
101.500000, 80.855, 166.1080
103.000000, 80.787, 166.0642
104.400002, 80.723, 166.0534
106.000000, 80.653, 165.9813
107.500000, 80.592, 165.9438
109.000000, 80.527, 166.0240
110.599998, 80.457, 166.0797
112.000000, 80.400, 166.1002
113.800003, 80.329, 166.1537
115.000000, 80.284, 166.1989
117.199997, 80.188, 166.2112
118.000000, 80.152, 166.2259
120.599998, 80.040, 166.3223
122.000000, 79.980, 166.3958
124.099998, 79.897, 166.5249
125.000000, 79.863, 166.5752
126.500000, 79.809, 166.6585
128.000000, 79.753, 166.7534
131.500000, 79.629, 166.9190
132.000000, 79.611, 166.9423
134.000000, 79.535, 167.0607
136.000000, 79.461, 167.2197
138.000000, 79.390, 167.3715
140.000000, 79.316, 167.5303
143.000000, 79.201, 167.7886
145.000000, 79.136, 167.9250
147.500000, 79.060, 168.0879
150.000000, 78.982, 168.3530
152.500000, 78.902, 168.6525
155.000000, 78.824, 168.8773
157.500000, 78.746, 169.1234
160.000000, 78.667, 169.3901
162.500000, 78.593, 169.6597
165.000000, 78.520, 169.9266
167.500000, 78.445, 170.2044
170.000000, 78.372, 170.4779
172.500000, 78.301, 170.7422
175.000000, 78.230, 171.0562
177.500000, 78.162, 171.3579
180.000000, 78.098, 171.6490
182.500000, 78.035, 171.9620
185.000000, 77.973, 172.2592
187.500000, 77.912, 172.5697
190.000000, 77.849, 172.8971
192.500000, 77.789, 173.2281
195.000000, 77.730, 173.5592
197.500000, 77.671, 173.8713
200.000000, 77.608, 174.1907
203.000000, 77.536, 174.5952
206.000000, 77.472, 174.9977
209.000000, 77.410, 175.4009
212.000000, 77.346, 175.8119
214.000000, 77.303, 176.0921
218.000000, 77.216, 176.6598
220.000000, 77.174, 176.9426
224.000000, 77.096, 177.5153
227.000000, 77.042, 177.9528
230.000000, 76.988, 178.3627
233.000000, 76.928, 178.7468
236.000000, 76.871, 179.1841
240.000000, 76.802, 179.7767
243.000000, 76.748, -179.7948
247.000000, 76.681, -179.2090
250.000000, 76.631, -178.7754
254.000000, 76.567, -178.2115
258.000000, 76.506, -177.6332
262.000000, 76.439, -177.0242
265.000000, 76.392, -176.5647
269.000000, 76.336, -175.9672
272.000000, 76.295, -175.5411
276.000000, 76.239, -174.9737
280.000000, 76.188, -174.4108
285.000000, 76.120, -173.6360
290.000000, 76.050, -172.8904
295.000000, 75.992, -172.1826
300.000000, 75.935, -171.4834
304.000000, 75.891, -170.8895
307.000000, 75.858, -170.4275
311.000000, 75.812, -169.7852
315.000000, 75.770, -169.1748
320.000000, 75.719, -168.4574
325.000000, 75.664, -167.7717
330.000000, 75.615, -167.0355
335.000000, 75.567, -166.3217
340.000000, 75.519, -165.6278
345.000000, 75.477, -164.9053
350.000000, 75.435, -164.1869
355.000000, 75.396, -163.4779
360.000000, 75.359, -162.7687
365.000000, 75.319, -162.0877
370.000000, 75.278, -161.3951
375.000000, 75.241, -160.6961
382.000000, 75.194, -159.7082
387.000000, 75.164, -159.0084
395.000000, 75.113, -157.8833
400.000000, 75.084, -157.2154
406.000000, 75.046, -156.4288
412.000000, 75.006, -155.6008
418.000000, 74.970, -154.7718
425.000000, 74.932, -153.8370
431.000000, 74.899, -153.0505
437.000000, 74.865, -152.2298
444.000000, 74.826, -151.2954
450.000000, 74.793, -150.5191
455.000000, 74.769, -149.8647
462.000000, 74.739, -148.9148
468.000000, 74.716, -148.0857
475.000000, 74.688, -147.1617
482.000000, 74.659, -146.2485
487.000000, 74.640, -145.6005
494.000000, 74.613, -144.6730
500.000000, 74.592, -143.8672
508.000000, 74.565, -142.8347
515.000000, 74.540, -141.9248
522.000000, 74.516, -141.0221
530.000000, 74.494, -140.0019
538.000000, 74.473, -138.9828
545.000000, 74.453, -138.0849
552.000000, 74.434, -137.1798
560.000000, 74.416, -136.1393
570.000000, 74.393, -134.8410
580.000000, 74.373, -133.5503
590.000000, 74.356, -132.2932
600.000000, 74.342, -131.0339
608.000000, 74.333, -130.0279
615.000000, 74.324, -129.1526
622.000000, 74.317, -128.2751
630.000000, 74.311, -127.2754
640.000000, 74.304, -126.0228
650.000000, 74.295, -124.7681
660.000000, 74.289, -123.4918
670.000000, 74.287, -122.2432
680.000000, 74.287, -121.0061
690.000000, 74.291, -119.7630
700.000000, 74.297, -118.5169
710.000000, 74.304, -117.2654
720.000000, 74.311, -116.0185
730.000000, 74.321, -114.7853
740.000000, 74.332, -113.5346
750.000000, 74.345, -112.2909
762.000000, 74.364, -110.8067
775.000000, 74.390, -109.2207
788.000000, 74.419, -107.6362
800.000000, 74.450, -106.1582
812.000000, 74.485, -104.6795
825.000000, 74.530, -103.0856
838.000000, 74.577, -101.5097
850.000000, 74.624, -100.0777
862.000000, 74.676, -98.6541
875.000000, 74.740, -97.1056
885.000000, 74.792, -95.9148
900.000000, 74.872, -94.1575
912.000000, 74.942, -92.7860
925.000000, 75.023, -91.3227
938.000000, 75.109, -89.8599
950.000000, 75.193, -88.5558
962.000000, 75.280, -87.2934
975.000000, 75.375, -85.9461
988.000000, 75.473, -84.6214
1000.000000, 75.567, -83.4214
1015.000000, 75.690, -81.9793
1030.000000, 75.815, -80.6036
1044.000000, 75.933, -79.3365
1060.000000, 76.072, -77.9375
1075.000000, 76.205, -76.6808
1090.000000, 76.340, -75.4751
1106.000000, 76.483, -74.2428
1120.000000, 76.606, -73.2086
1138.000000, 76.762, -71.9407
1150.000000, 76.866, -71.1389
1172.000000, 77.053, -69.7124
1180.000000, 77.119, -69.2075
1206.000000, 77.330, -67.6323
1220.000000, 77.442, -66.8178
1241.000000, 77.607, -65.6510
1250.000000, 77.677, -65.1613
1265.000000, 77.791, -64.3529
1280.000000, 77.899, -63.5688
1315.000000, 78.143, -61.8038
1320.000000, 78.178, -61.5549
1340.000000, 78.315, -60.5650
1360.000000, 78.449, -59.6105
1380.000000, 78.581, -58.6786
1400.000000, 78.710, -57.7478
1430.000000, 78.897, -56.3593
1450.000000, 79.021, -55.4608
1475.000000, 79.176, -54.3617
1500.000000, 79.328, -53.2838
1525.000000, 79.480, -52.2113
1550.000000, 79.630, -51.1505
1575.000000, 79.781, -50.1176
1600.000000, 79.931, -49.0971
1625.000000, 80.080, -48.1032
1650.000000, 80.229, -47.1301
1675.000000, 80.378, -46.1780
1700.000000, 80.529, -45.2596
1725.000000, 80.681, -44.3638
1750.000000, 80.833, -43.4901
1775.000000, 80.984, -42.6405
1800.000000, 81.136, -41.8189
1825.000000, 81.290, -41.0307
1850.000000, 81.445, -40.2736
1875.000000, 81.600, -39.5459
1900.000000, 81.754, -38.8532
1925.000000, 81.908, -38.1984
1950.000000, 82.063, -37.5755
1975.000000, 82.219, -36.9890
2000.000000, 82.374, -36.4427
2030.000000, 82.560, -35.8327
2060.000000, 82.744, -35.2830
2090.000000, 82.928, -34.7956
2120.000000, 83.110, -34.3780
2140.000000, 83.229, -34.1365
2180.000000, 83.463, -33.7216
2200.000000, 83.578, -33.5528
2240.000000, 83.801, -33.3095
2270.000000, 83.964, -33.1973
2300.000000, 84.119, -33.1386
2330.000000, 84.269, -33.1349
2360.000000, 84.412, -33.1837
2400.000000, 84.591, -33.3304
2430.000000, 84.715, -33.4972
2470.000000, 84.867, -33.7814
2500.000000, 84.969, -34.0372
2540.000000, 85.090, -34.4281
2580.000000, 85.192, -34.8551
2620.000000, 85.278, -35.3028
2650.000000, 85.330, -35.6512
2690.000000, 85.385, -36.1258
2720.000000, 85.415, -36.4743
2760.000000, 85.439, -36.9177
2800.000000, 85.448, -37.3294
2850.000000, 85.439, -37.7885
2900.000000, 85.411, -38.1733
2950.000000, 85.367, -38.4695
3000.000000, 85.310, -38.6678
3040.000000, 85.256, -38.7579
3070.000000, 85.212, -38.7792
3110.000000, 85.148, -38.7499
3150.000000, 85.081, -38.6566
3200.000000, 84.996, -38.4498
3250.000000, 84.909, -38.1515
3300.000000, 84.824, -37.7726
3350.000000, 84.742, -37.3240
3400.000000, 84.663, -36.7989
3450.000000, 84.589, -36.2084
3500.000000, 84.520, -35.5675
3550.000000, 84.458, -34.8898
3600.000000, 84.404, -34.1815
3650.000000, 84.357, -33.4475
3700.000000, 84.318, -32.6963
3750.000000, 84.287, -31.9362
3820.000000, 84.257, -30.8720
3870.000000, 84.245, -30.1232
3950.000000, 84.242, -28.9682
4000.000000, 84.249, -28.2851
4060.000000, 84.266, -27.5151
4120.000000, 84.291, -26.8164
4180.000000, 84.324, -26.1940
4250.000000, 84.368, -25.5771
4310.000000, 84.410, -25.1568
4370.000000, 84.453, -24.8400
4440.000000, 84.503, -24.6125
4500.000000, 84.541, -24.5417
4550.000000, 84.566, -24.5663
4620.000000, 84.592, -24.7329
4680.000000, 84.601, -24.9935
4750.000000, 84.591, -25.4189
4820.000000, 84.557, -25.9473
4870.000000, 84.517, -26.3721
4940.000000, 84.435, -27.0086
5000.000000, 84.340, -27.5749
5080.000000, 84.178, -28.3154
5150.000000, 84.003, -28.9125
5220.000000, 83.798, -29.4365
5300.000000, 83.533, -29.9036
5380.000000, 83.235, -30.1901
5450.000000, 82.952, -30.2736
5520.000000, 82.654, -30.1855
5600.000000, 82.298, -29.8496
5700.000000, 81.844, -29.0437
5800.000000, 81.397, -27.8118
5900.000000, 80.975, -26.2647
6000.000000, 80.576, -24.5046
6080.000000, 80.271, -22.9680
6150.000000, 80.014, -21.5171
6220.000000, 79.766, -19.9680
6300.000000, 79.499, -18.0926
6400.000000, 79.191, -15.6010
6500.000000, 78.917, -12.9595
6600.000000, 78.679, -10.2283
6700.000000, 78.472, -7.4360
6800.000000, 78.300, -4.5974
6900.000000, 78.164, -1.7330
7000.000000, 78.068, 1.1359
7100.000000, 78.018, 3.9575
7200.000000, 78.010, 6.6506
7300.000000, 78.031, 9.1433
7400.000000, 78.072, 11.4829
7500.000000, 78.131, 13.7172
7620.000000, 78.234, 16.2474
7750.000000, 78.393, 18.7620
7880.000000, 78.602, 20.9686
8000.000000, 78.837, 22.6525
8120.000000, 79.108, 23.9191
8250.000000, 79.435, 24.7239
8380.000000, 79.780, 24.8398
8500.000000, 80.094, 24.2593
8620.000000, 80.380, 22.9850
8750.000000, 80.627, 20.8478
8850.000000, 80.752, 18.7339
9000.000000, 80.801, 14.9836
9120.000000, 80.704, 11.7264
9250.000000, 80.458, 8.2454
9380.000000, 80.076, 5.0817
9500.000000, 79.627, 2.6016
9620.000000, 79.111, 0.6472
9750.000000, 78.504, -0.8304
9880.000000, 77.873, -1.6594
10000.000000, 77.288, -1.9095
10150.000000, 76.572, -1.6150
10300.000000, 75.882, -0.7485
10440.000000, 75.267, 0.5155
10600.000000, 74.604, 2.4554
10750.000000, 74.030, 4.6508
10900.000000, 73.506, 7.1975
11060.000000, 73.010, 10.2915
11200.000000, 72.635, 13.2560
11380.000000, 72.238, 17.3182
11500.000000, 72.033, 20.1343
11720.000000, 71.788, 25.4018
11800.000000, 71.742, 27.2917
12060.000000, 71.746, 33.1634
12200.000000, 71.840, 36.0801
12410.000000, 72.098, 39.9596
12500.000000, 72.249, 41.4065
12650.000000, 72.551, 43.4529
12800.000000, 72.913, 44.9766
13150.000000, 73.943, 45.9964
13200.000000, 74.104, 45.7864
13400.000000, 74.751, 43.8694
13600.000000, 75.334, 40.1473
13800.000000, 75.742, 34.6659
14000.000000, 75.870, 27.8780
14300.000000, 75.430, 17.2094
14500.000000, 74.764, 11.0385
14750.000000, 73.665, 5.2752
15000.000000, 72.439, 1.9581
15250.000000, 71.250, 0.9471
15500.000000, 70.236, 1.8430
15750.000000, 69.490, 3.7867
16000.000000, 69.016, 5.9335
16250.000000, 68.777, 7.7285
16500.000000, 68.722, 8.5312
16750.000000, 68.762, 8.0194
17000.000000, 68.814, 6.1268
17250.000000, 68.783, 2.8395
17500.000000, 68.571, -1.6775
17750.000000, 68.122, -7.1127
18000.000000, 67.387, -13.1451
18250.000000, 66.337, -19.4653
18500.000000, 64.945, -25.8664
18750.000000, 63.200, -32.1872
19000.000000, 61.096, -38.2332
19250.000000, 58.615, -43.9639
19500.000000, 55.758, -49.3725
19750.000000, 52.680, -54.1834
