* Measurement data measured by REW V5.31.3
* Source: Input device not selected, no input selected, L, volume: no control
* Format: 256k Log Swept Sine, 1 sweep at -12.0 dBFS with no timing reference
* Dated: Dec 25, 2024 3:49:52 AM
* REW Settings:
*  C-weighting compensation: Off
*  Target level: 75.0 dB
* Note: 
* Measurement: EA500LM (BGVP Foam M) L
* Smoothing: 1/24 octave
* Frequency Step: 1/48 octave
* Start Frequency: 20.300 Hz
*
* Freq(Hz), SPL(dB), Phase(degrees)
20.299999, 82.063, -157.1416
20.600000, 82.073, -157.5966
20.900000, 82.086, -158.1311
21.200001, 82.104, -158.6967
21.400000, 82.116, -159.0834
21.799999, 82.139, -159.8484
22.000000, 82.148, -160.2101
22.400000, 82.159, -160.8632
22.700001, 82.163, -161.2895
23.000000, 82.165, -161.6797
23.299999, 82.166, -162.0619
23.600000, 82.168, -162.4634
24.000000, 82.172, -163.0523
24.299999, 82.175, -163.5292
24.700001, 82.179, -164.1770
25.000000, 82.182, -164.6441
25.400000, 82.187, -165.2161
25.799999, 82.192, -165.7303
26.200001, 82.196, -166.2129
26.500000, 82.197, -166.5738
26.900000, 82.194, -167.0704
27.200001, 82.190, -167.4550
27.600000, 82.183, -167.9713
28.000000, 82.177, -168.4714
28.500000, 82.174, -169.0509
29.000000, 82.172, -169.5790
29.500000, 82.166, -170.0756
30.000000, 82.153, -170.5645
30.400000, 82.141, -170.9648
30.700001, 82.133, -171.2771
31.100000, 82.126, -171.7113
31.500000, 82.122, -172.1544
32.000000, 82.116, -172.6777
32.500000, 82.107, -173.1219
33.000000, 82.098, -173.5041
33.500000, 82.090, -173.9119
34.000000, 82.076, -174.4146
34.500000, 82.048, -174.9736
35.000000, 82.010, -175.4753
35.500000, 81.978, -175.8541
36.000000, 81.966, -176.1650
36.500000, 81.967, -176.5130
37.000000, 81.963, -176.9314
37.500000, 81.946, -177.3616
38.200001, 81.911, -177.8751
38.700001, 81.890, -178.1938
39.500000, 81.859, -178.7229
40.000000, 81.836, -179.0632
40.599998, 81.807, -179.4537
41.200001, 81.784, -179.8294
41.799999, 81.764, 179.7941
42.500000, 81.740, 179.3507
43.099998, 81.716, 178.9689
43.700001, 81.687, 178.5922
44.400002, 81.652, 178.1818
45.000000, 81.625, 177.8618
45.500000, 81.604, 177.6070
46.200001, 81.577, 177.2499
46.799999, 81.552, 176.9378
47.500000, 81.517, 176.5694
48.200001, 81.479, 176.2083
48.700001, 81.453, 175.9623
49.400002, 81.418, 175.6370
50.000000, 81.391, 175.3776
50.799999, 81.355, 175.0626
51.500000, 81.321, 174.7931
52.200001, 81.285, 174.4974
53.000000, 81.240, 174.1386
53.799999, 81.199, 173.7905
54.500000, 81.165, 173.4951
55.200001, 81.129, 173.2153
56.000000, 81.089, 172.9305
57.000000, 81.039, 172.6019
58.000000, 80.980, 172.2814
59.000000, 80.924, 171.9654
60.000000, 80.884, 171.6359
60.799999, 80.852, 171.3930
61.500000, 80.816, 171.2163
62.200001, 80.776, 171.0536
63.000000, 80.732, 170.8294
64.000000, 80.681, 170.4828
65.000000, 80.623, 170.1781
66.000000, 80.570, 169.9489
67.000000, 80.528, 169.7066
68.000000, 80.478, 169.4639
69.000000, 80.423, 169.2544
70.000000, 80.378, 169.0294
71.000000, 80.331, 168.8329
72.000000, 80.275, 168.6608
73.000000, 80.218, 168.4565
74.000000, 80.165, 168.2484
75.000000, 80.108, 168.0860
76.199997, 80.045, 167.9321
77.500000, 79.986, 167.7039
78.800003, 79.922, 167.5280
80.000000, 79.864, 167.3795
81.199997, 79.802, 167.2311
82.500000, 79.729, 167.0590
83.800003, 79.659, 166.9171
85.000000, 79.603, 166.8006
86.199997, 79.547, 166.6955
87.500000, 79.491, 166.5959
88.500000, 79.442, 166.5031
90.000000, 79.365, 166.3731
91.199997, 79.305, 166.2851
92.500000, 79.242, 166.2137
93.800003, 79.179, 166.1742
95.000000, 79.122, 166.1248
96.199997, 79.065, 166.0432
97.500000, 79.010, 165.9826
98.800003, 78.956, 165.9335
100.000000, 78.902, 165.9093
101.500000, 78.832, 165.8763
103.000000, 78.767, 165.8465
104.400002, 78.709, 165.8238
106.000000, 78.639, 165.7719
107.500000, 78.574, 165.7783
109.000000, 78.509, 165.8257
110.599998, 78.440, 165.8450
112.000000, 78.379, 165.8550
113.800003, 78.299, 165.8805
115.000000, 78.248, 165.9207
117.199997, 78.156, 165.9650
118.000000, 78.121, 165.9800
120.599998, 78.022, 166.0847
122.000000, 77.972, 166.1057
124.099998, 77.891, 166.1765
125.000000, 77.855, 166.2175
126.500000, 77.796, 166.2801
128.000000, 77.736, 166.3531
131.500000, 77.605, 166.5858
132.000000, 77.587, 166.6058
134.000000, 77.514, 166.6981
136.000000, 77.437, 166.8695
138.000000, 77.369, 167.0324
140.000000, 77.301, 167.1845
143.000000, 77.193, 167.4175
145.000000, 77.121, 167.5524
147.500000, 77.037, 167.7109
150.000000, 76.953, 167.9203
152.500000, 76.876, 168.1992
155.000000, 76.798, 168.4615
157.500000, 76.715, 168.6521
160.000000, 76.636, 168.9096
162.500000, 76.562, 169.1995
165.000000, 76.487, 169.4177
167.500000, 76.409, 169.6979
170.000000, 76.334, 170.0286
172.500000, 76.263, 170.3287
175.000000, 76.197, 170.5792
177.500000, 76.132, 170.8563
180.000000, 76.062, 171.1479
182.500000, 75.997, 171.4408
185.000000, 75.930, 171.7534
187.500000, 75.865, 172.0859
190.000000, 75.802, 172.4459
192.500000, 75.742, 172.7671
195.000000, 75.685, 173.0539
197.500000, 75.628, 173.3519
200.000000, 75.569, 173.7117
203.000000, 75.494, 174.1230
206.000000, 75.421, 174.4872
209.000000, 75.351, 174.9124
212.000000, 75.288, 175.3057
214.000000, 75.248, 175.5459
218.000000, 75.158, 176.0736
220.000000, 75.113, 176.3533
224.000000, 75.034, 176.9362
227.000000, 74.979, 177.4030
230.000000, 74.919, 177.8183
233.000000, 74.858, 178.2264
236.000000, 74.801, 178.6286
240.000000, 74.732, 179.1923
243.000000, 74.682, 179.6162
247.000000, 74.617, -179.8268
250.000000, 74.567, -179.3908
254.000000, 74.498, -178.8011
258.000000, 74.435, -178.1874
262.000000, 74.380, -177.5252
265.000000, 74.334, -177.0894
269.000000, 74.267, -176.5539
272.000000, 74.219, -176.1370
276.000000, 74.162, -175.5353
280.000000, 74.114, -174.9157
285.000000, 74.055, -174.1816
290.000000, 73.993, -173.4717
295.000000, 73.927, -172.7720
300.000000, 73.865, -172.0315
304.000000, 73.822, -171.4225
307.000000, 73.795, -170.9537
311.000000, 73.756, -170.3755
315.000000, 73.714, -169.8502
320.000000, 73.664, -169.1581
325.000000, 73.610, -168.4586
330.000000, 73.559, -167.7001
335.000000, 73.512, -166.9877
340.000000, 73.471, -166.3255
345.000000, 73.427, -165.7019
350.000000, 73.382, -165.0452
355.000000, 73.340, -164.3189
360.000000, 73.293, -163.6060
365.000000, 73.247, -162.9048
370.000000, 73.206, -162.1999
375.000000, 73.165, -161.5150
382.000000, 73.113, -160.5814
387.000000, 73.077, -159.9127
395.000000, 73.017, -158.8199
400.000000, 72.982, -158.1231
406.000000, 72.944, -157.3371
412.000000, 72.912, -156.5270
418.000000, 72.877, -155.6873
425.000000, 72.828, -154.7702
431.000000, 72.784, -153.9760
437.000000, 72.751, -153.1665
444.000000, 72.720, -152.2072
450.000000, 72.693, -151.4107
455.000000, 72.668, -150.7632
462.000000, 72.628, -149.8600
468.000000, 72.595, -149.0485
475.000000, 72.565, -148.1075
482.000000, 72.540, -147.2388
487.000000, 72.517, -146.6028
494.000000, 72.486, -145.6389
500.000000, 72.469, -144.8270
508.000000, 72.443, -143.7876
515.000000, 72.411, -142.8822
522.000000, 72.380, -142.0054
530.000000, 72.357, -140.9678
538.000000, 72.339, -139.9510
545.000000, 72.321, -139.0622
552.000000, 72.299, -138.1192
560.000000, 72.281, -137.0986
570.000000, 72.256, -135.8554
580.000000, 72.232, -134.5295
590.000000, 72.213, -133.2396
600.000000, 72.194, -131.9560
608.000000, 72.183, -130.9561
615.000000, 72.175, -130.1209
622.000000, 72.164, -129.3029
630.000000, 72.151, -128.3445
640.000000, 72.144, -127.0743
650.000000, 72.140, -125.8211
660.000000, 72.134, -124.5346
670.000000, 72.131, -123.2626
680.000000, 72.129, -122.0318
690.000000, 72.124, -120.8140
700.000000, 72.123, -119.5944
710.000000, 72.124, -118.3512
720.000000, 72.130, -117.0986
730.000000, 72.137, -115.8303
740.000000, 72.145, -114.6260
750.000000, 72.156, -113.4440
762.000000, 72.177, -111.9577
775.000000, 72.199, -110.3416
788.000000, 72.225, -108.7303
800.000000, 72.251, -107.2538
812.000000, 72.282, -105.7741
825.000000, 72.320, -104.1535
838.000000, 72.366, -102.5937
850.000000, 72.409, -101.1828
862.000000, 72.464, -99.7675
875.000000, 72.523, -98.2044
885.000000, 72.569, -97.0102
900.000000, 72.649, -95.2360
912.000000, 72.722, -93.8585
925.000000, 72.800, -92.4060
938.000000, 72.880, -90.9678
950.000000, 72.959, -89.6482
962.000000, 73.043, -88.3510
975.000000, 73.143, -86.9979
988.000000, 73.246, -85.6774
1000.000000, 73.337, -84.4891
1015.000000, 73.451, -83.1028
1030.000000, 73.572, -81.6900
1044.000000, 73.689, -80.4237
1060.000000, 73.827, -79.0737
1075.000000, 73.954, -77.8453
1090.000000, 74.086, -76.6492
1106.000000, 74.230, -75.4321
1120.000000, 74.351, -74.4136
1138.000000, 74.494, -73.1153
1150.000000, 74.587, -72.2951
1172.000000, 74.767, -70.9227
1180.000000, 74.832, -70.4306
1206.000000, 75.028, -68.8442
1220.000000, 75.132, -68.0182
1241.000000, 75.288, -66.8237
1250.000000, 75.354, -66.3186
1265.000000, 75.461, -65.5040
1280.000000, 75.565, -64.7186
1315.000000, 75.796, -62.9076
1320.000000, 75.828, -62.6443
1340.000000, 75.950, -61.6128
1360.000000, 76.073, -60.6359
1380.000000, 76.196, -59.6737
1400.000000, 76.313, -58.7186
1430.000000, 76.487, -57.2427
1450.000000, 76.602, -56.2716
1475.000000, 76.746, -55.0911
1500.000000, 76.893, -53.9412
1525.000000, 77.036, -52.7937
1550.000000, 77.174, -51.6286
1575.000000, 77.311, -50.4940
1600.000000, 77.453, -49.3896
1625.000000, 77.598, -48.3139
1650.000000, 77.743, -47.2425
1675.000000, 77.888, -46.2040
1700.000000, 78.030, -45.1806
1725.000000, 78.176, -44.1888
1750.000000, 78.324, -43.1971
1775.000000, 78.472, -42.2287
1800.000000, 78.622, -41.2880
1825.000000, 78.774, -40.3969
1850.000000, 78.926, -39.5274
1875.000000, 79.078, -38.6728
1900.000000, 79.232, -37.8440
1925.000000, 79.388, -37.0372
1950.000000, 79.546, -36.2603
1975.000000, 79.703, -35.5231
2000.000000, 79.860, -34.8168
2030.000000, 80.050, -34.0529
2060.000000, 80.241, -33.3326
2090.000000, 80.433, -32.6485
2120.000000, 80.626, -32.0372
2140.000000, 80.753, -31.6684
2180.000000, 81.007, -31.0013
2200.000000, 81.135, -30.7153
2240.000000, 81.391, -30.2066
2270.000000, 81.579, -29.8940
2300.000000, 81.761, -29.6644
2330.000000, 81.939, -29.5047
2360.000000, 82.113, -29.4031
2400.000000, 82.338, -29.3694
2430.000000, 82.499, -29.4083
2470.000000, 82.702, -29.5613
2500.000000, 82.847, -29.7612
2540.000000, 83.027, -30.1027
2580.000000, 83.189, -30.5280
2620.000000, 83.332, -31.0187
2650.000000, 83.427, -31.4259
2690.000000, 83.535, -32.0140
2720.000000, 83.602, -32.4826
2760.000000, 83.674, -33.1296
2800.000000, 83.725, -33.7761
2850.000000, 83.763, -34.5711
2900.000000, 83.770, -35.3249
2950.000000, 83.750, -36.0301
3000.000000, 83.707, -36.6274
3040.000000, 83.657, -37.0320
3070.000000, 83.611, -37.2899
3110.000000, 83.541, -37.5662
3150.000000, 83.462, -37.7649
3200.000000, 83.353, -37.9118
3250.000000, 83.235, -37.9424
3300.000000, 83.113, -37.8493
3350.000000, 82.991, -37.6440
3400.000000, 82.867, -37.3062
3450.000000, 82.744, -36.8683
3500.000000, 82.624, -36.3496
3550.000000, 82.509, -35.7587
3600.000000, 82.399, -35.0837
3650.000000, 82.294, -34.3267
3700.000000, 82.197, -33.5309
3750.000000, 82.109, -32.6868
3820.000000, 81.998, -31.4372
3870.000000, 81.928, -30.5135
3950.000000, 81.838, -28.9739
4000.000000, 81.791, -27.9937
4060.000000, 81.740, -26.8203
4120.000000, 81.705, -25.6502
4180.000000, 81.682, -24.4968
4250.000000, 81.669, -23.1666
4310.000000, 81.670, -22.0634
4370.000000, 81.682, -21.0184
4440.000000, 81.705, -19.8618
4500.000000, 81.731, -18.9251
4550.000000, 81.758, -18.2032
4620.000000, 81.801, -17.2840
4680.000000, 81.842, -16.5641
4750.000000, 81.895, -15.8179
4820.000000, 81.946, -15.2009
4870.000000, 81.980, -14.8356
4940.000000, 82.023, -14.4263
5000.000000, 82.054, -14.1566
5080.000000, 82.086, -13.9000
5150.000000, 82.101, -13.7802
5220.000000, 82.099, -13.7545
5300.000000, 82.077, -13.8135
5380.000000, 82.028, -13.8999
5450.000000, 81.961, -13.9909
5520.000000, 81.872, -14.0870
5600.000000, 81.745, -14.1305
5700.000000, 81.551, -13.9688
5800.000000, 81.343, -13.5784
5900.000000, 81.132, -13.0040
6000.000000, 80.918, -12.2996
6080.000000, 80.741, -11.6314
6150.000000, 80.581, -10.9514
6220.000000, 80.421, -10.1729
6300.000000, 80.242, -9.1622
6400.000000, 80.031, -7.7293
6500.000000, 79.842, -6.1090
6600.000000, 79.683, -4.3310
6700.000000, 79.559, -2.4239
6800.000000, 79.477, -0.4846
6900.000000, 79.441, 1.4250
7000.000000, 79.445, 3.2144
7100.000000, 79.481, 4.8375
7200.000000, 79.542, 6.3225
7300.000000, 79.628, 7.6471
7400.000000, 79.741, 8.7846
7500.000000, 79.882, 9.7269
7620.000000, 80.090, 10.5225
7750.000000, 80.356, 10.8420
7880.000000, 80.661, 10.4427
8000.000000, 80.950, 9.2966
8120.000000, 81.216, 7.2943
8250.000000, 81.430, 4.1172
8380.000000, 81.516, 0.0156
8500.000000, 81.434, -4.3586
8620.000000, 81.170, -8.9385
8750.000000, 80.680, -13.6756
8850.000000, 80.177, -16.8963
9000.000000, 79.269, -20.7189
9120.000000, 78.460, -22.7926
9250.000000, 77.547, -24.0927
9380.000000, 76.637, -24.4956
9500.000000, 75.821, -24.1794
9620.000000, 75.043, -23.3469
9750.000000, 74.245, -21.9567
9880.000000, 73.496, -20.1540
10000.000000, 72.849, -18.2317
10150.000000, 72.092, -15.5448
10300.000000, 71.386, -12.5738
10440.000000, 70.776, -9.5819
10600.000000, 70.130, -5.9307
10750.000000, 69.571, -2.2877
10900.000000, 69.063, 1.5310
11060.000000, 68.586, 5.8546
11200.000000, 68.216, 9.8361
11380.000000, 67.810, 15.0876
11500.000000, 67.597, 18.6759
11720.000000, 67.318, 25.2819
11800.000000, 67.252, 27.6665
12060.000000, 67.165, 35.3282
12200.000000, 67.192, 39.3057
12410.000000, 67.326, 45.0266
12500.000000, 67.419, 47.3716
12650.000000, 67.624, 51.0916
12800.000000, 67.887, 54.5666
13150.000000, 68.723, 61.6362
13200.000000, 68.869, 62.4888
13400.000000, 69.519, 65.4723
13600.000000, 70.285, 67.5254
13800.000000, 71.151, 68.3666
14000.000000, 72.089, 67.6796
14300.000000, 73.506, 63.2455
14500.000000, 74.323, 57.7918
14750.000000, 74.994, 48.6773
15000.000000, 75.142, 38.4208
15250.000000, 74.805, 28.8455
15500.000000, 74.162, 21.2164
15750.000000, 73.446, 15.6960
16000.000000, 72.840, 11.5230
16250.000000, 72.410, 7.6399
16500.000000, 72.103, 3.0989
16750.000000, 71.770, -2.5615
17000.000000, 71.272, -9.3303
17250.000000, 70.507, -16.7701
17500.000000, 69.422, -24.0929
17750.000000, 68.012, -30.6529
18000.000000, 66.318, -36.1613
18250.000000, 64.394, -40.5282
18500.000000, 62.261, -43.9305
18750.000000, 59.920, -46.5824
19000.000000, 57.353, -48.6015
19250.000000, 54.545, -50.0691
19500.000000, 51.483, -51.1377
19750.000000, 48.347, -51.3931
