* Measurement data measured by REW V5.31.3
* Source: Input device not selected, no input selected, L, volume: no control
* Format: 256k Log Swept Sine, 1 sweep at -12.0 dBFS with no timing reference
* Dated: Aug 29, 2024 3:23:15 PM
* REW Settings:
*  C-weighting compensation: Off
*  Target level: 75.0 dB
* Note: ; 
* Measurement: EA500LM (Stock) L
* Smoothing: 1/24 octave
* Frequency Step: 1/48 octave
* Start Frequency: 20.300 Hz
*
* Freq(Hz), SPL(dB), Phase(degrees)
20.299999, 83.751, -162.4016
20.600000, 83.715, -162.9132
20.900000, 83.693, -163.4032
21.200001, 83.698, -163.8714
21.400000, 83.716, -164.2018
21.799999, 83.772, -164.9646
22.000000, 83.802, -165.4028
22.400000, 83.848, -166.3491
22.700001, 83.867, -167.0559
23.000000, 83.878, -167.7061
23.299999, 83.891, -168.2787
23.600000, 83.917, -168.7870
24.000000, 83.977, -169.4323
24.299999, 84.036, -169.9409
24.700001, 84.111, -170.6714
25.000000, 84.148, -171.2247
25.400000, 84.153, -171.8756
25.799999, 84.110, -172.3355
26.200001, 84.040, -172.5931
26.500000, 83.988, -172.7201
26.900000, 83.937, -172.9551
27.200001, 83.918, -173.2764
27.600000, 83.912, -173.9472
28.000000, 83.914, -174.8061
28.500000, 83.919, -175.8459
29.000000, 83.935, -176.5671
29.500000, 83.965, -176.9762
30.000000, 83.986, -177.3052
30.400000, 83.971, -177.6225
30.700001, 83.935, -177.8903
31.100000, 83.869, -178.2530
31.500000, 83.806, -178.6110
32.000000, 83.771, -179.1202
32.500000, 83.791, -179.7861
33.000000, 83.830, 179.4341
33.500000, 83.851, 178.6950
34.000000, 83.842, 178.0866
34.500000, 83.807, 177.5740
35.000000, 83.764, 177.0979
35.500000, 83.737, 176.6533
36.000000, 83.752, 176.2255
36.500000, 83.805, 175.7280
37.000000, 83.854, 175.0958
37.500000, 83.850, 174.4129
38.200001, 83.751, 173.7121
38.700001, 83.678, 173.4489
39.500000, 83.649, 172.9367
40.000000, 83.655, 172.3805
40.599998, 83.625, 171.6891
41.200001, 83.559, 171.2206
41.799999, 83.505, 170.8889
42.500000, 83.485, 170.3632
43.099998, 83.481, 169.8473
43.700001, 83.476, 169.4961
44.400002, 83.469, 169.2592
45.000000, 83.453, 168.9287
45.500000, 83.427, 168.4889
46.200001, 83.384, 167.8020
46.799999, 83.360, 167.3309
47.500000, 83.334, 166.9534
48.200001, 83.282, 166.6601
48.700001, 83.233, 166.4254
49.400002, 83.179, 165.9580
50.000000, 83.158, 165.4196
50.799999, 83.150, 164.6941
51.500000, 83.137, 164.2105
52.200001, 83.111, 163.8632
53.000000, 83.070, 163.5519
53.799999, 83.030, 163.2530
54.500000, 82.993, 162.9116
55.200001, 82.952, 162.4396
56.000000, 82.906, 161.8021
57.000000, 82.857, 161.1759
58.000000, 82.817, 160.8987
59.000000, 82.780, 160.5208
60.000000, 82.737, 159.8743
60.799999, 82.703, 159.4324
61.500000, 82.674, 159.1851
62.200001, 82.642, 158.9623
63.000000, 82.600, 158.5668
64.000000, 82.538, 157.8536
65.000000, 82.489, 157.2541
66.000000, 82.468, 156.9234
67.000000, 82.446, 156.5990
68.000000, 82.394, 156.1033
69.000000, 82.326, 155.6283
70.000000, 82.262, 155.3291
71.000000, 82.199, 155.0807
72.000000, 82.144, 154.7872
73.000000, 82.106, 154.4561
74.000000, 82.066, 154.1208
75.000000, 82.021, 153.7249
76.199997, 81.959, 153.1904
77.500000, 81.890, 152.8091
78.800003, 81.833, 152.3904
80.000000, 81.787, 152.0245
81.199997, 81.744, 151.7368
82.500000, 81.692, 151.4275
83.800003, 81.625, 151.0437
85.000000, 81.552, 150.6651
86.199997, 81.501, 150.3397
87.500000, 81.456, 150.0052
88.500000, 81.407, 149.7027
90.000000, 81.331, 149.2766
91.199997, 81.278, 149.0187
92.500000, 81.222, 148.7759
93.800003, 81.166, 148.5464
95.000000, 81.115, 148.2498
96.199997, 81.064, 147.9330
97.500000, 81.012, 147.6589
98.800003, 80.956, 147.3414
100.000000, 80.901, 147.0172
101.500000, 80.834, 146.6999
103.000000, 80.768, 146.4492
104.400002, 80.696, 146.2719
106.000000, 80.631, 146.0649
107.500000, 80.580, 145.8174
109.000000, 80.516, 145.4831
110.599998, 80.452, 145.2006
112.000000, 80.396, 145.0178
113.800003, 80.327, 144.7924
115.000000, 80.277, 144.6691
117.199997, 80.177, 144.3109
118.000000, 80.142, 144.1754
120.599998, 80.041, 143.8304
122.000000, 79.996, 143.6827
124.099998, 79.923, 143.4748
125.000000, 79.892, 143.3576
126.500000, 79.838, 143.1375
128.000000, 79.784, 142.9178
131.500000, 79.652, 142.5492
132.000000, 79.633, 142.5074
134.000000, 79.560, 142.3373
136.000000, 79.487, 142.1055
138.000000, 79.416, 141.9290
140.000000, 79.354, 141.7557
143.000000, 79.251, 141.5233
145.000000, 79.187, 141.3927
147.500000, 79.113, 141.2130
150.000000, 79.030, 141.0440
152.500000, 78.950, 140.8461
155.000000, 78.871, 140.7006
157.500000, 78.799, 140.5665
160.000000, 78.724, 140.4551
162.500000, 78.645, 140.3233
165.000000, 78.576, 140.1776
167.500000, 78.506, 140.0443
170.000000, 78.438, 139.9424
172.500000, 78.374, 139.8384
175.000000, 78.310, 139.7384
177.500000, 78.248, 139.6369
180.000000, 78.186, 139.5557
182.500000, 78.120, 139.4857
185.000000, 78.051, 139.4301
187.500000, 77.986, 139.3788
190.000000, 77.921, 139.3280
192.500000, 77.859, 139.2883
195.000000, 77.800, 139.2396
197.500000, 77.741, 139.1816
200.000000, 77.685, 139.1244
203.000000, 77.622, 139.0754
206.000000, 77.556, 139.0104
209.000000, 77.488, 138.9738
212.000000, 77.423, 138.9440
214.000000, 77.385, 138.9344
218.000000, 77.308, 138.9134
220.000000, 77.265, 138.8928
224.000000, 77.183, 138.8808
227.000000, 77.126, 138.8606
230.000000, 77.070, 138.8448
233.000000, 77.015, 138.8356
236.000000, 76.963, 138.8272
240.000000, 76.891, 138.8536
243.000000, 76.836, 138.8830
247.000000, 76.766, 138.8951
250.000000, 76.719, 138.8854
254.000000, 76.653, 138.8686
258.000000, 76.589, 138.8828
262.000000, 76.531, 138.9055
265.000000, 76.488, 138.9387
269.000000, 76.428, 138.9804
272.000000, 76.380, 139.0095
276.000000, 76.321, 139.0564
280.000000, 76.268, 139.0836
285.000000, 76.205, 139.1358
290.000000, 76.142, 139.2313
295.000000, 76.078, 139.2883
300.000000, 76.013, 139.3230
304.000000, 75.965, 139.3422
307.000000, 75.931, 139.3637
311.000000, 75.886, 139.4115
315.000000, 75.839, 139.4902
320.000000, 75.786, 139.6061
325.000000, 75.734, 139.6968
330.000000, 75.684, 139.7607
335.000000, 75.636, 139.8286
340.000000, 75.589, 139.8857
345.000000, 75.543, 139.9528
350.000000, 75.497, 140.0359
355.000000, 75.448, 140.0840
360.000000, 75.401, 140.1749
365.000000, 75.361, 140.2769
370.000000, 75.325, 140.3767
375.000000, 75.285, 140.4827
382.000000, 75.229, 140.6124
387.000000, 75.193, 140.6911
395.000000, 75.136, 140.8419
400.000000, 75.104, 140.9456
406.000000, 75.069, 141.0675
412.000000, 75.033, 141.1772
418.000000, 74.999, 141.2701
425.000000, 74.960, 141.3587
431.000000, 74.922, 141.4489
437.000000, 74.883, 141.5532
444.000000, 74.844, 141.6929
450.000000, 74.817, 141.8023
455.000000, 74.793, 141.9026
462.000000, 74.758, 142.0639
468.000000, 74.729, 142.2028
475.000000, 74.698, 142.3271
482.000000, 74.671, 142.4590
487.000000, 74.652, 142.5417
494.000000, 74.622, 142.6673
500.000000, 74.599, 142.7856
508.000000, 74.572, 142.9705
515.000000, 74.549, 143.1277
522.000000, 74.526, 143.2365
530.000000, 74.505, 143.3597
538.000000, 74.480, 143.5370
545.000000, 74.453, 143.6871
552.000000, 74.432, 143.8180
560.000000, 74.415, 143.9780
570.000000, 74.396, 144.1730
580.000000, 74.375, 144.3884
590.000000, 74.352, 144.6377
600.000000, 74.335, 144.8549
608.000000, 74.322, 145.0261
615.000000, 74.312, 145.1826
622.000000, 74.303, 145.3382
630.000000, 74.292, 145.5154
640.000000, 74.281, 145.7601
650.000000, 74.275, 146.0075
660.000000, 74.272, 146.2429
670.000000, 74.270, 146.4969
680.000000, 74.268, 146.7052
690.000000, 74.266, 146.9600
700.000000, 74.269, 147.2425
710.000000, 74.272, 147.5054
720.000000, 74.276, 147.7525
730.000000, 74.285, 148.0326
740.000000, 74.296, 148.3334
750.000000, 74.305, 148.6100
762.000000, 74.314, 148.9638
775.000000, 74.336, 149.3534
788.000000, 74.368, 149.6739
800.000000, 74.401, 150.0292
812.000000, 74.438, 150.3970
825.000000, 74.479, 150.7945
838.000000, 74.523, 151.2312
850.000000, 74.568, 151.5710
862.000000, 74.616, 151.8784
875.000000, 74.673, 152.2564
885.000000, 74.721, 152.5538
900.000000, 74.801, 152.9833
912.000000, 74.873, 153.2875
925.000000, 74.955, 153.5742
938.000000, 75.038, 153.8776
950.000000, 75.119, 154.1537
962.000000, 75.204, 154.4113
975.000000, 75.300, 154.6513
988.000000, 75.405, 154.8600
1000.000000, 75.508, 155.0323
1015.000000, 75.628, 155.1863
1030.000000, 75.750, 155.3163
1044.000000, 75.869, 155.4222
1060.000000, 76.011, 155.4950
1075.000000, 76.144, 155.5062
1090.000000, 76.277, 155.4679
1106.000000, 76.424, 155.3785
1120.000000, 76.549, 155.2641
1138.000000, 76.708, 155.0535
1150.000000, 76.814, 154.8881
1172.000000, 77.006, 154.5441
1180.000000, 77.073, 154.4037
1206.000000, 77.286, 153.9086
1220.000000, 77.398, 153.6190
1241.000000, 77.562, 153.1203
1250.000000, 77.630, 152.8948
1265.000000, 77.742, 152.5108
1280.000000, 77.853, 152.1169
1315.000000, 78.097, 151.2116
1320.000000, 78.131, 151.0780
1340.000000, 78.265, 150.5287
1360.000000, 78.396, 149.9541
1380.000000, 78.524, 149.3825
1400.000000, 78.648, 148.8572
1430.000000, 78.828, 148.0345
1450.000000, 78.947, 147.4698
1475.000000, 79.097, 146.7878
1500.000000, 79.246, 146.1000
1525.000000, 79.391, 145.4085
1550.000000, 79.536, 144.7155
1575.000000, 79.683, 144.0328
1600.000000, 79.830, 143.3395
1625.000000, 79.973, 142.6347
1650.000000, 80.116, 141.9486
1675.000000, 80.262, 141.2407
1700.000000, 80.408, 140.5285
1725.000000, 80.556, 139.8156
1750.000000, 80.706, 139.0856
1775.000000, 80.859, 138.3519
1800.000000, 81.011, 137.6091
1825.000000, 81.162, 136.8541
1850.000000, 81.312, 136.0858
1875.000000, 81.464, 135.2889
1900.000000, 81.620, 134.4764
1925.000000, 81.777, 133.6487
1950.000000, 81.938, 132.8016
1975.000000, 82.098, 131.9330
2000.000000, 82.258, 131.0397
2030.000000, 82.451, 129.9338
2060.000000, 82.647, 128.7881
2090.000000, 82.842, 127.6025
2120.000000, 83.036, 126.3734
2140.000000, 83.164, 125.5263
2180.000000, 83.419, 123.7679
2200.000000, 83.546, 122.8462
2240.000000, 83.801, 120.9443
2270.000000, 83.991, 119.4567
2300.000000, 84.176, 117.9092
2330.000000, 84.356, 116.3103
2360.000000, 84.531, 114.6616
2400.000000, 84.759, 112.3680
2430.000000, 84.921, 110.5836
2470.000000, 85.125, 108.1326
2500.000000, 85.267, 106.2369
2540.000000, 85.442, 103.6370
2580.000000, 85.600, 100.9700
2620.000000, 85.740, 98.2545
2650.000000, 85.830, 96.1934
2690.000000, 85.931, 93.4185
2720.000000, 85.993, 91.3278
2760.000000, 86.056, 88.5422
2800.000000, 86.097, 85.7660
2850.000000, 86.117, 82.3550
2900.000000, 86.107, 79.0354
2950.000000, 86.068, 75.8210
3000.000000, 86.003, 72.7222
3040.000000, 85.934, 70.3542
3070.000000, 85.875, 68.6425
3110.000000, 85.788, 66.4439
3150.000000, 85.692, 64.3459
3200.000000, 85.562, 61.8671
3250.000000, 85.423, 59.5515
3300.000000, 85.280, 57.3988
3350.000000, 85.135, 55.3867
3400.000000, 84.990, 53.5176
3450.000000, 84.847, 51.7813
3500.000000, 84.709, 50.1653
3550.000000, 84.576, 48.6584
3600.000000, 84.448, 47.2469
3650.000000, 84.325, 45.9256
3700.000000, 84.211, 44.6805
3750.000000, 84.106, 43.5130
3820.000000, 83.972, 41.9758
3870.000000, 83.884, 40.9407
3950.000000, 83.761, 39.3837
4000.000000, 83.696, 38.4592
4060.000000, 83.629, 37.3777
4120.000000, 83.573, 36.3183
4180.000000, 83.529, 35.2656
4250.000000, 83.492, 34.0423
4310.000000, 83.470, 32.9879
4370.000000, 83.458, 31.9187
4440.000000, 83.452, 30.6267
4500.000000, 83.452, 29.4808
4550.000000, 83.456, 28.4999
4620.000000, 83.467, 27.0731
4680.000000, 83.479, 25.7930
4750.000000, 83.493, 24.2269
4820.000000, 83.501, 22.5757
4870.000000, 83.502, 21.3523
4940.000000, 83.498, 19.5732
5000.000000, 83.487, 17.9849
5080.000000, 83.456, 15.7916
5150.000000, 83.411, 13.8167
5220.000000, 83.347, 11.8098
5300.000000, 83.246, 9.5007
5380.000000, 83.110, 7.2085
5450.000000, 82.961, 5.2582
5520.000000, 82.786, 3.3959
5600.000000, 82.560, 1.4335
5700.000000, 82.245, -0.7177
5800.000000, 81.912, -2.5175
5900.000000, 81.575, -4.0217
6000.000000, 81.226, -5.2584
6080.000000, 80.942, -6.0165
6150.000000, 80.693, -6.5233
6220.000000, 80.447, -6.8972
6300.000000, 80.170, -7.1350
6400.000000, 79.841, -7.1547
6500.000000, 79.531, -6.9193
6600.000000, 79.245, -6.4762
6700.000000, 78.991, -5.8523
6800.000000, 78.764, -5.0588
6900.000000, 78.565, -4.1419
7000.000000, 78.397, -3.1042
7100.000000, 78.261, -1.9873
7200.000000, 78.155, -0.8608
7300.000000, 78.073, 0.2700
7400.000000, 78.008, 1.4292
7500.000000, 77.963, 2.6621
7620.000000, 77.943, 4.2477
7750.000000, 77.968, 6.0550
7880.000000, 78.051, 7.9072
8000.000000, 78.186, 9.5992
8120.000000, 78.382, 11.2581
8250.000000, 78.664, 12.9196
8380.000000, 79.021, 14.3767
8500.000000, 79.415, 15.4713
8620.000000, 79.875, 16.2299
8750.000000, 80.449, 16.5610
8850.000000, 80.943, 16.3818
9000.000000, 81.762, 15.2006
9120.000000, 82.471, 13.2444
9250.000000, 83.263, 9.8245
9380.000000, 84.019, 4.7881
9500.000000, 84.600, -1.4116
9620.000000, 84.972, -8.9415
9750.000000, 85.043, -18.0082
9880.000000, 84.724, -27.0673
10000.000000, 84.116, -34.5524
10150.000000, 83.058, -41.9261
10300.000000, 81.834, -46.8603
10440.000000, 80.669, -49.4707
10600.000000, 79.398, -50.5443
10750.000000, 78.300, -50.1254
10900.000000, 77.305, -48.6818
11060.000000, 76.361, -46.2971
11200.000000, 75.635, -43.6663
11380.000000, 74.836, -39.6801
11500.000000, 74.381, -36.7374
11720.000000, 73.696, -30.9343
11800.000000, 73.497, -28.7318
12060.000000, 73.020, -21.4343
12200.000000, 72.866, -17.4570
12410.000000, 72.757, -11.4929
12500.000000, 72.751, -8.9819
12650.000000, 72.798, -4.8851
12800.000000, 72.921, -0.9130
13150.000000, 73.518, 7.6683
13200.000000, 73.641, 8.7708
13400.000000, 74.237, 12.6771
13600.000000, 74.998, 15.5126
13800.000000, 75.902, 16.7506
14000.000000, 76.881, 15.7459
14300.000000, 78.190, 9.0919
14500.000000, 78.661, 1.4741
14750.000000, 78.487, -9.5452
15000.000000, 77.460, -18.8866
15250.000000, 75.905, -23.9678
15500.000000, 74.252, -24.2841
15750.000000, 72.829, -20.8929
16000.000000, 71.788, -15.2991
16250.000000, 71.162, -8.8134
16500.000000, 70.903, -2.5782
16750.000000, 70.927, 2.6898
17000.000000, 71.149, 6.6213
17250.000000, 71.474, 8.9713
17500.000000, 71.828, 9.6748
17750.000000, 72.124, 8.7001
18000.000000, 72.264, 6.1013
18250.000000, 72.152, 2.1923
18500.000000, 71.709, -2.4150
18750.000000, 70.902, -6.8435
19000.000000, 69.760, -10.4016
19250.000000, 68.334, -12.6927
19500.000000, 66.694, -13.5071
19750.000000, 64.999, -12.7620
20000.000000, 63.823, -11.1161
