* Measurement data measured by REW V5.31.3
* Source: Input device not selected, no input selected, L, volume: no control
* Format: 256k Log Swept Sine, 1 sweep at -11.0 dBFS with no timing reference
* Dated: Jan 24, 2025 10:22:01 PM
* REW Settings:
*  C-weighting compensation: Off
*  Target level: 75.0 dB
* Note: 
* Measurement: EDC Pro (Stock Shall) L
* Smoothing: 1/24 octave
* Frequency Step: 1/48 octave
* Start Frequency: 20.300 Hz
*
* Freq(Hz), SPL(dB), Phase(degrees)
20.299999, 90.590, -160.2584
20.600000, 90.696, -162.0476
20.900000, 90.796, -163.4157
21.200001, 90.853, -163.9512
21.400000, 90.863, -163.8763
21.799999, 90.838, -163.1371
22.000000, 90.809, -162.7680
22.400000, 90.725, -162.7433
22.700001, 90.629, -163.6567
23.000000, 90.503, -165.3145
23.299999, 90.364, -167.3479
23.600000, 90.248, -169.2223
24.000000, 90.203, -170.7064
24.299999, 90.289, -170.8884
24.700001, 90.544, -170.3878
25.000000, 90.767, -169.9966
25.400000, 90.974, -169.9664
25.799999, 90.983, -170.5062
26.200001, 90.799, -171.2289
26.500000, 90.597, -171.6336
26.900000, 90.369, -171.8660
27.200001, 90.289, -171.9181
27.600000, 90.314, -172.1016
28.000000, 90.414, -172.5907
28.500000, 90.498, -173.4833
29.000000, 90.474, -174.3047
29.500000, 90.401, -174.9174
30.000000, 90.372, -175.5063
30.400000, 90.404, -176.0708
30.700001, 90.452, -176.5283
31.100000, 90.527, -177.1088
31.500000, 90.586, -177.5898
32.000000, 90.604, -178.0567
32.500000, 90.535, -178.4535
33.000000, 90.378, -178.8006
33.500000, 90.179, -179.0180
34.000000, 90.015, -179.0932
34.500000, 89.964, -179.2708
35.000000, 90.032, -179.9442
35.500000, 90.144, 178.7746
36.000000, 90.200, 177.2891
36.500000, 90.160, 176.2329
37.000000, 90.053, 175.9145
37.500000, 89.933, 176.0343
38.200001, 89.762, 175.9518
38.700001, 89.634, 175.6220
39.500000, 89.554, 175.4172
40.000000, 89.622, 175.3994
40.599998, 89.685, 175.0618
41.200001, 89.591, 174.6261
41.799999, 89.433, 174.5150
42.500000, 89.454, 174.0978
43.099998, 89.624, 172.7310
43.700001, 89.707, 171.1943
44.400002, 89.629, 170.9346
45.000000, 89.583, 171.8751
45.500000, 89.618, 172.3288
46.200001, 89.643, 171.6466
46.799999, 89.552, 170.6849
47.500000, 89.391, 170.2272
48.200001, 89.281, 170.1089
48.700001, 89.232, 169.7858
49.400002, 89.200, 169.0057
50.000000, 89.223, 168.1918
50.799999, 89.225, 167.0837
51.500000, 89.088, 166.6735
52.200001, 88.904, 166.9629
53.000000, 88.786, 166.9678
53.799999, 88.734, 166.1382
54.500000, 88.727, 165.6128
55.200001, 88.764, 165.5818
56.000000, 88.777, 165.8182
57.000000, 88.723, 165.9305
58.000000, 88.631, 165.2654
59.000000, 88.461, 165.2037
60.000000, 88.354, 165.6830
60.799999, 88.317, 164.9999
61.500000, 88.288, 163.7663
62.200001, 88.254, 162.6970
63.000000, 88.218, 162.2790
64.000000, 88.210, 162.2782
65.000000, 88.175, 161.7906
66.000000, 88.030, 161.5758
67.000000, 87.887, 161.9664
68.000000, 87.838, 161.8768
69.000000, 87.796, 161.3585
70.000000, 87.750, 161.1515
71.000000, 87.755, 160.8875
72.000000, 87.756, 160.4610
73.000000, 87.692, 159.9203
74.000000, 87.560, 159.2925
75.000000, 87.449, 159.2214
76.199997, 87.371, 159.4899
77.500000, 87.250, 159.0603
78.800003, 87.156, 158.8577
80.000000, 87.156, 159.2827
81.199997, 87.223, 159.1005
82.500000, 87.207, 159.0507
83.800003, 87.076, 158.9760
85.000000, 86.896, 158.5170
86.199997, 86.755, 158.5921
87.500000, 86.651, 158.5982
88.500000, 86.602, 158.1754
90.000000, 86.529, 157.5234
91.199997, 86.507, 157.3636
92.500000, 86.517, 157.5111
93.800003, 86.443, 157.7836
95.000000, 86.327, 157.9437
96.199997, 86.248, 158.0403
97.500000, 86.196, 158.2855
98.800003, 86.124, 158.4346
100.000000, 86.016, 158.3282
101.500000, 85.852, 158.0959
103.000000, 85.754, 157.9273
104.400002, 85.726, 157.8388
106.000000, 85.664, 157.9475
107.500000, 85.609, 158.0895
109.000000, 85.547, 158.3548
110.599998, 85.438, 158.4757
112.000000, 85.337, 158.2433
113.800003, 85.295, 157.9110
115.000000, 85.272, 157.9106
117.199997, 85.168, 158.0300
118.000000, 85.130, 158.0354
120.599998, 84.992, 157.9117
122.000000, 84.908, 157.8965
124.099998, 84.819, 158.0714
125.000000, 84.790, 158.2576
126.500000, 84.742, 158.4008
128.000000, 84.672, 158.4159
131.500000, 84.506, 158.9006
132.000000, 84.485, 158.9265
134.000000, 84.399, 158.9012
136.000000, 84.319, 158.8450
138.000000, 84.224, 158.9179
140.000000, 84.116, 159.0080
143.000000, 84.020, 159.1776
145.000000, 83.973, 159.4244
147.500000, 83.878, 159.5420
150.000000, 83.755, 159.7706
152.500000, 83.652, 160.1923
155.000000, 83.560, 160.3817
157.500000, 83.469, 160.5664
160.000000, 83.386, 160.7586
162.500000, 83.297, 160.9370
165.000000, 83.213, 161.1170
167.500000, 83.131, 161.3441
170.000000, 83.043, 161.6567
172.500000, 82.960, 161.9956
175.000000, 82.879, 162.2261
177.500000, 82.803, 162.4150
180.000000, 82.724, 162.6138
182.500000, 82.644, 162.8648
185.000000, 82.567, 163.1548
187.500000, 82.492, 163.4434
190.000000, 82.415, 163.7589
192.500000, 82.341, 164.0908
195.000000, 82.267, 164.4074
197.500000, 82.196, 164.6983
200.000000, 82.128, 164.9959
203.000000, 82.046, 165.3727
206.000000, 81.961, 165.7808
209.000000, 81.874, 166.1475
212.000000, 81.795, 166.5057
214.000000, 81.748, 166.7816
218.000000, 81.647, 167.3859
220.000000, 81.594, 167.6735
224.000000, 81.492, 168.2275
227.000000, 81.417, 168.6412
230.000000, 81.342, 169.0477
233.000000, 81.275, 169.4165
236.000000, 81.213, 169.8263
240.000000, 81.126, 170.4281
243.000000, 81.060, 170.8597
247.000000, 80.983, 171.4078
250.000000, 80.927, 171.8234
254.000000, 80.849, 172.3602
258.000000, 80.775, 172.8954
262.000000, 80.702, 173.4726
265.000000, 80.644, 173.9069
269.000000, 80.572, 174.4411
272.000000, 80.520, 174.8635
276.000000, 80.445, 175.4457
280.000000, 80.372, 176.0035
285.000000, 80.287, 176.7061
290.000000, 80.206, 177.3874
295.000000, 80.130, 178.0716
300.000000, 80.047, 178.7571
304.000000, 79.986, 179.3083
307.000000, 79.941, 179.7492
311.000000, 79.880, -179.6657
315.000000, 79.822, -179.1049
320.000000, 79.752, -178.3922
325.000000, 79.681, -177.6850
330.000000, 79.611, -176.9366
335.000000, 79.543, -176.2113
340.000000, 79.483, -175.5215
345.000000, 79.424, -174.8214
350.000000, 79.367, -174.1022
355.000000, 79.309, -173.3798
360.000000, 79.254, -172.6937
365.000000, 79.200, -171.9806
370.000000, 79.144, -171.2796
375.000000, 79.093, -170.5834
382.000000, 79.020, -169.5929
387.000000, 78.970, -168.8872
395.000000, 78.897, -167.7844
400.000000, 78.852, -167.1070
406.000000, 78.798, -166.3086
412.000000, 78.746, -165.4838
418.000000, 78.696, -164.6774
425.000000, 78.641, -163.7198
431.000000, 78.593, -162.8778
437.000000, 78.548, -162.0635
444.000000, 78.496, -161.1415
450.000000, 78.450, -160.3786
455.000000, 78.414, -159.7279
462.000000, 78.368, -158.8000
468.000000, 78.331, -157.9985
475.000000, 78.289, -157.0575
482.000000, 78.244, -156.1245
487.000000, 78.214, -155.4753
494.000000, 78.174, -154.5471
500.000000, 78.141, -153.7402
508.000000, 78.096, -152.7011
515.000000, 78.060, -151.8103
522.000000, 78.027, -150.9032
530.000000, 77.990, -149.8322
538.000000, 77.952, -148.7976
545.000000, 77.918, -147.9046
552.000000, 77.886, -146.9955
560.000000, 77.856, -145.9637
570.000000, 77.823, -144.6723
580.000000, 77.790, -143.4100
590.000000, 77.758, -142.1551
600.000000, 77.728, -140.8872
608.000000, 77.706, -139.8535
615.000000, 77.687, -138.9556
622.000000, 77.669, -138.0797
630.000000, 77.649, -137.0910
640.000000, 77.627, -135.8171
650.000000, 77.608, -134.5528
660.000000, 77.590, -133.2992
670.000000, 77.577, -132.0680
680.000000, 77.568, -130.8251
690.000000, 77.562, -129.5866
700.000000, 77.560, -128.3491
710.000000, 77.560, -127.1183
720.000000, 77.560, -125.9142
730.000000, 77.564, -124.7050
740.000000, 77.571, -123.4788
750.000000, 77.581, -122.2744
762.000000, 77.598, -120.8795
775.000000, 77.624, -119.3754
788.000000, 77.655, -117.9193
800.000000, 77.685, -116.6553
812.000000, 77.705, -115.5105
825.000000, 77.691, -114.3982
838.000000, 77.637, -112.9561
850.000000, 77.625, -111.1296
862.000000, 77.677, -109.3988
875.000000, 77.754, -107.8435
885.000000, 77.810, -106.7621
900.000000, 77.883, -105.1837
912.000000, 77.932, -103.9545
925.000000, 77.981, -102.6404
938.000000, 78.030, -101.3278
950.000000, 78.079, -100.1015
962.000000, 78.131, -98.8635
975.000000, 78.189, -97.5207
988.000000, 78.249, -96.1523
1000.000000, 78.310, -94.9019
1015.000000, 78.398, -93.4159
1030.000000, 78.500, -91.9783
1044.000000, 78.600, -90.6924
1060.000000, 78.715, -89.2676
1075.000000, 78.824, -87.9721
1090.000000, 78.934, -86.7343
1106.000000, 79.052, -85.4706
1120.000000, 79.155, -84.4212
1138.000000, 79.288, -83.1472
1150.000000, 79.376, -82.3232
1172.000000, 79.532, -80.8866
1180.000000, 79.588, -80.3847
1206.000000, 79.768, -78.8128
1220.000000, 79.862, -78.0154
1241.000000, 79.998, -76.8653
1250.000000, 80.054, -76.3771
1265.000000, 80.146, -75.5799
1280.000000, 80.234, -74.8165
1315.000000, 80.432, -73.1008
1320.000000, 80.460, -72.8606
1340.000000, 80.564, -71.8960
1360.000000, 80.663, -70.9441
1380.000000, 80.756, -70.0051
1400.000000, 80.847, -69.0879
1430.000000, 80.984, -67.7323
1450.000000, 81.071, -66.8333
1475.000000, 81.176, -65.6975
1500.000000, 81.279, -64.5922
1525.000000, 81.379, -63.4823
1550.000000, 81.476, -62.3759
1575.000000, 81.571, -61.2827
1600.000000, 81.669, -60.1831
1625.000000, 81.772, -59.0992
1650.000000, 81.876, -58.0442
1675.000000, 81.979, -56.9922
1700.000000, 82.079, -55.9480
1725.000000, 82.179, -54.9074
1750.000000, 82.280, -53.8839
1775.000000, 82.383, -52.8852
1800.000000, 82.486, -51.8994
1825.000000, 82.590, -50.9300
1850.000000, 82.694, -49.9818
1875.000000, 82.799, -49.0528
1900.000000, 82.905, -48.1391
1925.000000, 83.012, -47.2501
1950.000000, 83.119, -46.3865
1975.000000, 83.225, -45.5356
2000.000000, 83.330, -44.7014
2030.000000, 83.459, -43.7294
2060.000000, 83.588, -42.7745
2090.000000, 83.718, -41.8294
2120.000000, 83.853, -40.9103
2140.000000, 83.946, -40.3087
2180.000000, 84.139, -39.1821
2200.000000, 84.237, -38.6810
2240.000000, 84.430, -37.7864
2270.000000, 84.570, -37.2029
2300.000000, 84.707, -36.6768
2330.000000, 84.837, -36.1777
2360.000000, 84.959, -35.6857
2400.000000, 85.111, -35.0427
2430.000000, 85.224, -34.5717
2470.000000, 85.377, -33.9708
2500.000000, 85.496, -33.5473
2540.000000, 85.659, -33.0528
2580.000000, 85.819, -32.6863
2620.000000, 85.967, -32.4485
2650.000000, 86.068, -32.3387
2690.000000, 86.191, -32.2481
2720.000000, 86.274, -32.2110
2760.000000, 86.372, -32.1790
2800.000000, 86.456, -32.1644
2850.000000, 86.546, -32.1677
2900.000000, 86.622, -32.1798
2950.000000, 86.683, -32.2058
3000.000000, 86.728, -32.2326
3040.000000, 86.751, -32.2445
3070.000000, 86.760, -32.2374
3110.000000, 86.763, -32.2046
3150.000000, 86.753, -32.1312
3200.000000, 86.728, -31.9644
3250.000000, 86.693, -31.6834
3300.000000, 86.656, -31.2823
3350.000000, 86.624, -30.7373
3400.000000, 86.607, -30.0654
3450.000000, 86.616, -29.3576
3500.000000, 86.649, -28.7437
3550.000000, 86.691, -28.3031
3600.000000, 86.724, -28.0307
3650.000000, 86.735, -27.8351
3700.000000, 86.727, -27.6210
3750.000000, 86.711, -27.3570
3820.000000, 86.688, -26.9290
3870.000000, 86.677, -26.6519
3950.000000, 86.647, -26.3626
4000.000000, 86.608, -26.2042
4060.000000, 86.546, -25.9760
4120.000000, 86.473, -25.6815
4180.000000, 86.395, -25.3181
4250.000000, 86.298, -24.8076
4310.000000, 86.211, -24.3100
4370.000000, 86.121, -23.7701
4440.000000, 86.016, -23.0948
4500.000000, 85.925, -22.4850
4550.000000, 85.849, -21.9557
4620.000000, 85.743, -21.1700
4680.000000, 85.652, -20.4711
4750.000000, 85.543, -19.6450
4820.000000, 85.427, -18.8085
4870.000000, 85.337, -18.1756
4940.000000, 85.205, -17.2032
5000.000000, 85.088, -16.2690
5080.000000, 84.940, -14.8554
5150.000000, 84.826, -13.4961
5220.000000, 84.727, -12.1100
5300.000000, 84.622, -10.5389
5380.000000, 84.517, -8.8791
5450.000000, 84.433, -7.3344
5520.000000, 84.358, -5.7102
5600.000000, 84.290, -3.7446
5700.000000, 84.249, -1.1549
5800.000000, 84.266, 1.4314
5900.000000, 84.322, 3.9103
6000.000000, 84.403, 6.3247
6080.000000, 84.488, 8.2193
6150.000000, 84.584, 9.8449
6220.000000, 84.707, 11.4242
6300.000000, 84.879, 13.1364
6400.000000, 85.137, 15.0689
6500.000000, 85.441, 16.7356
6600.000000, 85.796, 18.0763
6700.000000, 86.199, 18.9328
6800.000000, 86.638, 19.1819
6900.000000, 87.090, 18.6857
7000.000000, 87.511, 17.4299
7100.000000, 87.878, 15.6042
7200.000000, 88.202, 13.3282
7300.000000, 88.493, 10.4996
7400.000000, 88.732, 7.0077
7500.000000, 88.891, 2.7431
7620.000000, 88.889, -3.3468
7750.000000, 88.548, -10.4284
7880.000000, 87.839, -16.9146
8000.000000, 86.927, -21.5423
8120.000000, 85.877, -24.4993
8250.000000, 84.702, -25.8727
8380.000000, 83.575, -25.7206
8500.000000, 82.610, -24.5676
8620.000000, 81.724, -22.6896
8750.000000, 80.857, -20.0615
8850.000000, 80.249, -17.7032
9000.000000, 79.432, -13.7195
9120.000000, 78.865, -10.2315
9250.000000, 78.336, -6.2788
9380.000000, 77.889, -2.2128
9500.000000, 77.537, 1.6006
9620.000000, 77.243, 5.4670
9750.000000, 76.990, 9.7178
9880.000000, 76.806, 13.9861
10000.000000, 76.696, 17.9016
10150.000000, 76.645, 22.7343
10300.000000, 76.687, 27.4605
10440.000000, 76.808, 31.7232
10600.000000, 77.045, 36.3571
10750.000000, 77.363, 40.3821
10900.000000, 77.779, 44.0299
11060.000000, 78.340, 47.3524
11200.000000, 78.934, 49.5883
11380.000000, 79.823, 51.1645
11500.000000, 80.468, 51.1635
11720.000000, 81.643, 48.4108
11800.000000, 82.018, 46.4687
12060.000000, 82.776, 37.4532
12200.000000, 82.807, 31.8515
12410.000000, 82.371, 24.3314
12500.000000, 82.045, 21.7952
12650.000000, 81.391, 18.7689
12800.000000, 80.673, 17.3741
13150.000000, 79.372, 20.8222
13200.000000, 79.319, 21.7765
13400.000000, 79.345, 23.5585
13600.000000, 79.257, 23.8306
13800.000000, 79.204, 25.2016
14000.000000, 79.414, 26.7761
14300.000000, 80.264, 27.1938
14500.000000, 81.126, 24.6183
14750.000000, 82.213, 16.3230
15000.000000, 82.705, 2.5388
15250.000000, 82.099, -13.0591
15500.000000, 80.493, -25.4911
15750.000000, 78.430, -32.3941
16000.000000, 76.419, -34.3682
16250.000000, 74.717, -33.1024
16500.000000, 73.375, -29.9867
16750.000000, 72.371, -25.9000
17000.000000, 71.670, -21.4649
17250.000000, 71.249, -17.1546
17500.000000, 71.099, -13.4684
17750.000000, 71.217, -11.1258
18000.000000, 71.588, -11.2281
18250.000000, 72.148, -15.4004
18500.000000, 72.639, -25.7202
18750.000000, 72.390, -42.9256
19000.000000, 70.647, -63.1745
19250.000000, 67.304, -80.1200
19500.000000, 62.872, -90.3780
19750.000000, 58.036, -94.3802
