* Measurement data measured by REW V5.31.3
* Source: Input device not selected, no input selected, L, volume: no control
* Format: 256k Log Swept Sine, 1 sweep at -12.0 dBFS with no timing reference
* Dated: Aug 27, 2024 12:51:13 PM
* REW Settings:
*  C-weighting compensation: Off
*  Target level: 75.0 dB
* Note: 
* Measurement: EDC PRO (Stock M) L
* Smoothing: 1/24 octave
* Frequency Step: 1/48 octave
* Start Frequency: 20.300 Hz
*
* Freq(Hz), SPL(dB), Phase(degrees)
20.299999, 84.261, -163.3816
20.600000, 84.270, -163.9791
20.900000, 84.276, -164.6314
21.200001, 84.279, -165.2845
21.400000, 84.281, -165.7143
21.799999, 84.288, -166.5524
22.000000, 84.293, -166.9590
22.400000, 84.304, -167.7498
22.700001, 84.312, -168.3277
23.000000, 84.319, -168.8965
23.299999, 84.323, -169.4571
23.600000, 84.324, -170.0086
24.000000, 84.324, -170.7281
24.299999, 84.325, -171.2572
24.700001, 84.328, -171.9557
25.000000, 84.332, -172.4789
25.400000, 84.337, -173.1756
25.799999, 84.338, -173.8600
26.200001, 84.333, -174.5150
26.500000, 84.327, -174.9818
26.900000, 84.319, -175.5785
27.200001, 84.314, -176.0180
27.600000, 84.310, -176.6091
28.000000, 84.304, -177.2079
28.500000, 84.293, -177.9400
29.000000, 84.278, -178.6169
29.500000, 84.264, -179.2475
30.000000, 84.253, -179.8927
30.400000, 84.244, 179.5472
30.700001, 84.236, 179.1041
31.100000, 84.220, 178.5081
31.500000, 84.202, 177.9394
32.000000, 84.182, 177.2936
32.500000, 84.168, 176.6989
33.000000, 84.156, 176.1105
33.500000, 84.139, 175.5111
34.000000, 84.115, 174.9183
34.500000, 84.089, 174.3517
35.000000, 84.066, 173.8094
35.500000, 84.046, 173.2759
36.000000, 84.027, 172.7404
36.500000, 84.007, 172.1998
37.000000, 83.985, 171.6552
37.500000, 83.961, 171.1131
38.200001, 83.926, 170.3864
38.700001, 83.901, 169.9047
39.500000, 83.863, 169.1699
40.000000, 83.839, 168.7028
40.599998, 83.806, 168.1318
41.200001, 83.769, 167.5782
41.799999, 83.733, 167.0633
42.500000, 83.694, 166.4953
43.099998, 83.662, 166.0028
43.700001, 83.632, 165.4929
44.400002, 83.597, 164.9062
45.000000, 83.567, 164.4439
45.500000, 83.539, 164.0863
46.200001, 83.497, 163.5897
46.799999, 83.457, 163.1393
47.500000, 83.413, 162.5850
48.200001, 83.375, 162.0265
48.700001, 83.348, 161.6501
49.400002, 83.304, 161.1841
50.000000, 83.266, 160.8265
50.799999, 83.218, 160.3224
51.500000, 83.176, 159.8364
52.200001, 83.131, 159.3751
53.000000, 83.081, 158.8954
53.799999, 83.036, 158.3970
54.500000, 82.995, 157.9570
55.200001, 82.952, 157.5613
56.000000, 82.901, 157.1425
57.000000, 82.833, 156.5914
58.000000, 82.775, 156.0012
59.000000, 82.720, 155.4360
60.000000, 82.655, 154.9605
60.799999, 82.604, 154.5751
61.500000, 82.561, 154.2102
62.200001, 82.519, 153.8657
63.000000, 82.471, 153.5159
64.000000, 82.412, 153.0751
65.000000, 82.352, 152.5952
66.000000, 82.289, 152.1291
67.000000, 82.221, 151.7216
68.000000, 82.160, 151.3244
69.000000, 82.107, 150.9141
70.000000, 82.052, 150.5046
71.000000, 81.990, 150.0865
72.000000, 81.925, 149.6965
73.000000, 81.862, 149.3602
74.000000, 81.801, 149.0390
75.000000, 81.742, 148.6971
76.199997, 81.673, 148.2967
77.500000, 81.602, 147.8619
78.800003, 81.532, 147.4147
80.000000, 81.465, 147.0380
81.199997, 81.388, 146.6779
82.500000, 81.300, 146.3182
83.800003, 81.220, 145.9560
85.000000, 81.157, 145.6043
86.199997, 81.096, 145.2829
87.500000, 81.020, 144.9593
88.500000, 80.960, 144.6891
90.000000, 80.878, 144.2869
91.199997, 80.814, 144.0257
92.500000, 80.743, 143.7756
93.800003, 80.675, 143.5196
95.000000, 80.612, 143.2563
96.199997, 80.549, 142.9836
97.500000, 80.479, 142.7061
98.800003, 80.408, 142.4840
100.000000, 80.347, 142.2725
101.500000, 80.268, 141.9493
103.000000, 80.186, 141.6770
104.400002, 80.112, 141.4476
106.000000, 80.034, 141.1815
107.500000, 79.959, 140.9903
109.000000, 79.880, 140.7577
110.599998, 79.798, 140.4989
112.000000, 79.732, 140.3079
113.800003, 79.647, 140.0818
115.000000, 79.588, 139.9218
117.199997, 79.483, 139.6357
118.000000, 79.446, 139.5399
120.599998, 79.328, 139.2331
122.000000, 79.262, 139.0715
124.099998, 79.165, 138.8837
125.000000, 79.124, 138.8153
126.500000, 79.056, 138.6797
128.000000, 78.988, 138.5020
131.500000, 78.826, 138.2110
132.000000, 78.805, 138.1807
134.000000, 78.721, 138.0402
136.000000, 78.632, 137.8634
138.000000, 78.539, 137.7390
140.000000, 78.451, 137.6358
143.000000, 78.330, 137.4999
145.000000, 78.245, 137.4078
147.500000, 78.140, 137.2314
150.000000, 78.030, 137.1342
152.500000, 77.926, 137.3787
155.000000, 77.827, 137.8969
157.500000, 77.725, 137.8851
160.000000, 77.628, 137.5569
162.500000, 77.539, 137.6170
165.000000, 77.465, 137.8053
167.500000, 77.397, 138.0212
170.000000, 77.341, 138.2465
172.500000, 77.302, 138.3777
175.000000, 77.274, 138.4322
177.500000, 77.248, 138.4043
180.000000, 77.201, 138.3399
182.500000, 77.148, 138.2425
185.000000, 77.113, 137.9783
187.500000, 77.067, 137.7175
190.000000, 77.006, 137.5281
192.500000, 76.946, 137.3577
195.000000, 76.885, 137.1938
197.500000, 76.819, 137.0388
200.000000, 76.752, 136.9158
203.000000, 76.667, 136.8536
206.000000, 76.578, 136.7831
209.000000, 76.493, 136.6935
212.000000, 76.412, 136.6498
214.000000, 76.358, 136.6556
218.000000, 76.253, 136.7019
220.000000, 76.204, 136.6899
224.000000, 76.101, 136.7046
227.000000, 76.025, 136.7781
230.000000, 75.956, 136.8161
233.000000, 75.888, 136.8377
236.000000, 75.823, 136.8722
240.000000, 75.737, 136.9432
243.000000, 75.671, 137.0296
247.000000, 75.585, 137.1535
250.000000, 75.523, 137.2270
254.000000, 75.443, 137.2931
258.000000, 75.374, 137.3890
262.000000, 75.304, 137.5085
265.000000, 75.244, 137.6277
269.000000, 75.172, 137.7338
272.000000, 75.119, 137.7875
276.000000, 75.046, 137.8872
280.000000, 74.975, 137.9750
285.000000, 74.889, 138.0965
290.000000, 74.804, 138.2382
295.000000, 74.730, 138.4459
300.000000, 74.651, 138.6084
304.000000, 74.589, 138.7208
307.000000, 74.543, 138.8052
311.000000, 74.479, 138.9492
315.000000, 74.418, 139.0812
320.000000, 74.352, 139.2094
325.000000, 74.289, 139.4317
330.000000, 74.214, 139.6814
335.000000, 74.127, 139.9492
340.000000, 74.047, 140.2367
345.000000, 73.985, 140.5486
350.000000, 73.931, 140.8805
355.000000, 73.888, 141.1731
360.000000, 73.856, 141.3555
365.000000, 73.822, 141.4945
370.000000, 73.782, 141.6290
375.000000, 73.741, 141.7684
382.000000, 73.681, 141.9885
387.000000, 73.631, 142.0943
395.000000, 73.551, 142.4103
400.000000, 73.506, 142.6372
406.000000, 73.453, 142.8339
412.000000, 73.390, 142.9976
418.000000, 73.325, 143.2435
425.000000, 73.263, 143.5465
431.000000, 73.222, 143.8025
437.000000, 73.182, 144.0168
444.000000, 73.130, 144.2980
450.000000, 73.087, 144.5673
455.000000, 73.055, 144.7952
462.000000, 73.010, 145.0918
468.000000, 72.972, 145.3707
475.000000, 72.931, 145.6893
482.000000, 72.888, 145.9896
487.000000, 72.859, 146.2134
494.000000, 72.822, 146.5298
500.000000, 72.788, 146.8016
508.000000, 72.740, 147.2133
515.000000, 72.695, 147.5431
522.000000, 72.651, 147.8162
530.000000, 72.616, 148.2248
538.000000, 72.587, 148.5849
545.000000, 72.559, 148.8197
552.000000, 72.527, 149.1138
560.000000, 72.493, 149.5282
570.000000, 72.460, 149.9724
580.000000, 72.430, 150.3953
590.000000, 72.389, 150.8876
600.000000, 72.351, 151.4789
608.000000, 72.328, 151.8696
615.000000, 72.310, 152.1922
622.000000, 72.295, 152.5162
630.000000, 72.283, 152.8605
640.000000, 72.265, 153.3448
650.000000, 72.248, 153.8773
660.000000, 72.235, 154.3222
670.000000, 72.218, 154.7700
680.000000, 72.199, 155.2889
690.000000, 72.189, 155.8068
700.000000, 72.189, 156.3004
710.000000, 72.186, 156.7799
720.000000, 72.185, 157.2673
730.000000, 72.193, 157.7323
740.000000, 72.202, 158.2082
750.000000, 72.209, 158.7310
762.000000, 72.218, 159.3485
775.000000, 72.240, 159.8769
788.000000, 72.276, 160.4274
800.000000, 72.306, 160.8444
812.000000, 72.315, 161.1361
825.000000, 72.282, 161.5342
838.000000, 72.251, 162.4393
850.000000, 72.286, 163.4323
862.000000, 72.350, 164.1729
875.000000, 72.416, 164.7477
885.000000, 72.462, 165.1032
900.000000, 72.531, 165.6966
912.000000, 72.580, 166.2263
925.000000, 72.632, 166.7796
938.000000, 72.683, 167.3405
950.000000, 72.741, 167.8508
962.000000, 72.804, 168.3842
975.000000, 72.878, 168.9634
988.000000, 72.952, 169.5626
1000.000000, 73.018, 170.0928
1015.000000, 73.107, 170.6470
1030.000000, 73.210, 171.2055
1044.000000, 73.312, 171.7063
1060.000000, 73.432, 172.1556
1075.000000, 73.551, 172.5424
1090.000000, 73.675, 172.9027
1106.000000, 73.807, 173.2237
1120.000000, 73.922, 173.4389
1138.000000, 74.068, 173.7017
1150.000000, 74.162, 173.8532
1172.000000, 74.330, 174.0642
1180.000000, 74.390, 174.1218
1206.000000, 74.588, 174.2586
1220.000000, 74.689, 174.2733
1241.000000, 74.828, 174.2728
1250.000000, 74.887, 174.2604
1265.000000, 74.987, 174.1784
1280.000000, 75.084, 174.0753
1315.000000, 75.297, 173.9470
1320.000000, 75.327, 173.9200
1340.000000, 75.443, 173.8062
1360.000000, 75.549, 173.7146
1380.000000, 75.650, 173.5938
1400.000000, 75.755, 173.4429
1430.000000, 75.908, 173.2475
1450.000000, 76.004, 173.1376
1475.000000, 76.108, 173.0101
1500.000000, 76.215, 172.8665
1525.000000, 76.326, 172.7492
1550.000000, 76.434, 172.6287
1575.000000, 76.538, 172.4818
1600.000000, 76.647, 172.3690
1625.000000, 76.751, 172.2701
1650.000000, 76.857, 172.1375
1675.000000, 76.965, 172.0403
1700.000000, 77.071, 171.9457
1725.000000, 77.178, 171.8426
1750.000000, 77.284, 171.7715
1775.000000, 77.392, 171.6663
1800.000000, 77.502, 171.5194
1825.000000, 77.610, 171.4241
1850.000000, 77.722, 171.3325
1875.000000, 77.837, 171.2153
1900.000000, 77.949, 171.0831
1925.000000, 78.059, 170.9289
1950.000000, 78.172, 170.7461
1975.000000, 78.289, 170.5347
2000.000000, 78.409, 170.3087
2030.000000, 78.550, 170.0840
2060.000000, 78.685, 169.8342
2090.000000, 78.821, 169.5341
2120.000000, 78.958, 169.1890
2140.000000, 79.051, 168.9431
2180.000000, 79.238, 168.4428
2200.000000, 79.330, 168.1809
2240.000000, 79.510, 167.5992
2270.000000, 79.647, 167.1413
2300.000000, 79.782, 166.6243
2330.000000, 79.911, 166.0879
2360.000000, 80.039, 165.5341
2400.000000, 80.207, 164.7642
2430.000000, 80.326, 164.1656
2470.000000, 80.481, 163.3168
2500.000000, 80.594, 162.6539
2540.000000, 80.739, 161.7300
2580.000000, 80.882, 160.7356
2620.000000, 81.019, 159.6690
2650.000000, 81.114, 158.8443
2690.000000, 81.225, 157.7213
2720.000000, 81.301, 156.8804
2760.000000, 81.396, 155.7137
2800.000000, 81.483, 154.4775
2850.000000, 81.573, 152.8883
2900.000000, 81.635, 151.2848
2950.000000, 81.671, 149.7221
3000.000000, 81.684, 148.1726
3040.000000, 81.682, 146.9687
3070.000000, 81.672, 146.1046
3110.000000, 81.647, 145.0012
3150.000000, 81.614, 143.9450
3200.000000, 81.557, 142.6830
3250.000000, 81.484, 141.5000
3300.000000, 81.401, 140.4169
3350.000000, 81.309, 139.4424
3400.000000, 81.205, 138.5547
3450.000000, 81.093, 137.7559
3500.000000, 80.973, 137.0895
3550.000000, 80.850, 136.5587
3600.000000, 80.723, 136.1296
3650.000000, 80.595, 135.8153
3700.000000, 80.468, 135.6615
3750.000000, 80.351, 135.6482
3820.000000, 80.221, 135.7906
3870.000000, 80.157, 135.9102
3950.000000, 80.088, 135.9339
4000.000000, 80.038, 135.7558
4060.000000, 79.959, 135.4323
4120.000000, 79.859, 135.1396
4180.000000, 79.738, 134.9315
4250.000000, 79.579, 134.8462
4310.000000, 79.441, 134.8966
4370.000000, 79.305, 135.0367
4440.000000, 79.148, 135.2866
4500.000000, 79.013, 135.5955
4550.000000, 78.898, 135.9061
4620.000000, 78.739, 136.4078
4680.000000, 78.605, 136.8912
4750.000000, 78.448, 137.4814
4820.000000, 78.292, 138.1133
4870.000000, 78.178, 138.6137
4940.000000, 78.016, 139.3838
5000.000000, 77.874, 140.1075
5080.000000, 77.680, 141.1474
5150.000000, 77.501, 142.1983
5220.000000, 77.322, 143.4186
5300.000000, 77.125, 144.9950
5380.000000, 76.944, 146.7164
5450.000000, 76.804, 148.2841
5520.000000, 76.674, 149.8785
5600.000000, 76.534, 151.7800
5700.000000, 76.368, 154.2039
5800.000000, 76.209, 156.6357
5900.000000, 76.044, 159.1730
6000.000000, 75.882, 161.9308
6080.000000, 75.761, 164.2487
6150.000000, 75.662, 166.4150
6220.000000, 75.576, 168.7376
6300.000000, 75.494, 171.4709
6400.000000, 75.419, 174.9884
6500.000000, 75.380, 178.6388
6600.000000, 75.370, -177.6491
6700.000000, 75.393, -173.9339
6800.000000, 75.460, -170.2005
6900.000000, 75.560, -166.3925
7000.000000, 75.691, -162.5791
7100.000000, 75.863, -158.7373
7200.000000, 76.071, -154.8767
7300.000000, 76.328, -151.1016
7400.000000, 76.637, -147.5103
7500.000000, 76.993, -144.1142
7620.000000, 77.473, -140.2823
7750.000000, 78.049, -136.4996
7880.000000, 78.694, -133.0948
8000.000000, 79.371, -130.3532
8120.000000, 80.146, -128.1273
8250.000000, 81.119, -126.6503
8380.000000, 82.232, -126.8186
8500.000000, 83.323, -129.2551
8620.000000, 84.311, -134.5084
8750.000000, 84.988, -143.2126
8850.000000, 85.076, -151.1179
9000.000000, 84.434, -162.3272
9120.000000, 83.404, -168.9174
9250.000000, 82.039, -172.8592
9380.000000, 80.636, -173.7775
9500.000000, 79.422, -172.6022
9620.000000, 78.329, -170.0471
9750.000000, 77.287, -166.1811
9880.000000, 76.385, -161.5232
10000.000000, 75.667, -156.7381
10150.000000, 74.910, -150.2630
10300.000000, 74.297, -143.4965
10440.000000, 73.842, -137.0006
10600.000000, 73.444, -129.5021
10750.000000, 73.183, -122.4823
10900.000000, 73.030, -115.5368
11060.000000, 72.973, -108.3806
11200.000000, 72.993, -102.3858
11380.000000, 73.118, -95.2005
11500.000000, 73.260, -90.8300
11720.000000, 73.601, -83.9899
11800.000000, 73.733, -81.9377
12060.000000, 74.075, -77.0736
12200.000000, 74.144, -75.4059
12410.000000, 74.003, -73.6027
12500.000000, 73.842, -72.8533
12650.000000, 73.438, -71.2413
12800.000000, 72.887, -68.7328
13150.000000, 71.727, -57.8904
13200.000000, 71.626, -56.4423
13400.000000, 71.102, -51.7952
13600.000000, 70.301, -45.9760
13800.000000, 69.484, -38.1582
14000.000000, 68.777, -29.0856
14300.000000, 67.952, -14.1513
14500.000000, 67.578, -3.5440
14750.000000, 67.314, 10.0619
15000.000000, 67.276, 23.8123
15250.000000, 67.476, 37.4956
15500.000000, 67.959, 50.8156
15750.000000, 68.736, 63.2377
16000.000000, 69.823, 74.1143
16250.000000, 71.212, 82.2495
16500.000000, 72.759, 86.0894
16750.000000, 74.095, 84.1575
17000.000000, 74.656, 77.4549
17250.000000, 74.115, 70.0198
17500.000000, 72.678, 66.3205
17750.000000, 70.843, 68.0749
18000.000000, 68.989, 74.5722
18250.000000, 67.302, 84.6608
18500.000000, 65.945, 97.2840
18750.000000, 65.004, 110.7402
19000.000000, 64.419, 123.4054
19250.000000, 64.059, 134.2208
19500.000000, 63.764, 142.5250
19750.000000, 63.352, 148.2422
20000.000000, 62.945, 151.8612
