* Measurement data measured by REW V5.40 beta 98
* Source: Input device not selected, no input selected, L, volume: no control
* Format: 256k Log Swept Sine, 1 sweep at -11.0 dBFS with no timing reference
* Dated: Aug 27, 2025 11:27:50 PM
* REW Settings:
*  C-weighting compensation: Off
*  Target level: 75.0 dB
* Note: ; 
* Measurement: EO-IG955BBE R
* Smoothing: 1/24 octave
* Frequency Step: 1/48 octave
* Start Frequency: 20.300 Hz
*
* Freq(Hz), SPL(dB), Phase(degrees)
20.299999, 86.182, 83.8513
20.600000, 86.275, 83.8590
20.900000, 86.385, 83.7574
21.200001, 86.494, 83.5550
21.400000, 86.565, 83.3899
21.799999, 86.711, 83.0582
22.000000, 86.788, 82.9108
22.400000, 86.953, 82.6495
22.700001, 87.084, 82.4516
23.000000, 87.215, 82.2231
23.299999, 87.337, 81.9595
23.600000, 87.447, 81.6824
24.000000, 87.575, 81.3530
24.299999, 87.664, 81.1718
24.700001, 87.784, 81.0214
25.000000, 87.882, 80.9477
25.400000, 88.018, 80.8471
25.799999, 88.153, 80.7139
26.200001, 88.279, 80.5574
26.500000, 88.368, 80.4366
26.900000, 88.485, 80.2643
27.200001, 88.574, 80.1073
27.600000, 88.694, 79.8378
28.000000, 88.810, 79.5139
28.500000, 88.943, 79.1339
29.000000, 89.070, 78.9012
29.500000, 89.208, 78.8028
30.000000, 89.358, 78.6898
30.400000, 89.475, 78.5068
30.700001, 89.555, 78.3178
31.100000, 89.647, 78.0384
31.500000, 89.729, 77.7812
32.000000, 89.833, 77.5232
32.500000, 89.952, 77.3032
33.000000, 90.086, 77.0779
33.500000, 90.226, 76.8557
34.000000, 90.365, 76.6740
34.500000, 90.498, 76.5421
35.000000, 90.617, 76.4314
35.500000, 90.717, 76.3111
36.000000, 90.800, 76.1726
36.500000, 90.879, 76.0169
37.000000, 90.966, 75.8366
37.500000, 91.067, 75.6235
38.200001, 91.222, 75.2885
38.700001, 91.328, 75.0491
39.500000, 91.478, 74.6813
40.000000, 91.562, 74.4540
40.599998, 91.668, 74.1927
41.200001, 91.789, 73.9541
41.799999, 91.923, 73.7291
42.500000, 92.071, 73.4828
43.099998, 92.177, 73.3122
43.700001, 92.270, 73.1815
44.400002, 92.380, 73.0219
45.000000, 92.479, 72.8449
45.500000, 92.564, 72.6778
46.200001, 92.682, 72.4301
46.799999, 92.781, 72.1972
47.500000, 92.893, 71.8976
48.200001, 93.002, 71.5970
48.700001, 93.078, 71.4036
49.400002, 93.181, 71.1855
50.000000, 93.267, 71.0504
50.799999, 93.378, 70.8975
51.500000, 93.474, 70.7320
52.200001, 93.568, 70.5307
53.000000, 93.677, 70.3000
53.799999, 93.790, 70.0967
54.500000, 93.889, 69.9213
55.200001, 93.986, 69.7012
56.000000, 94.089, 69.3713
57.000000, 94.211, 68.9677
58.000000, 94.333, 68.7312
59.000000, 94.456, 68.5391
60.000000, 94.574, 68.2192
60.799999, 94.666, 67.9526
61.500000, 94.750, 67.7799
62.200001, 94.835, 67.6379
63.000000, 94.928, 67.4576
64.000000, 95.046, 67.1956
65.000000, 95.162, 66.9083
66.000000, 95.256, 66.6314
67.000000, 95.340, 66.3920
68.000000, 95.440, 66.1549
69.000000, 95.548, 65.8658
70.000000, 95.648, 65.5203
71.000000, 95.745, 65.2114
72.000000, 95.849, 64.9853
73.000000, 95.947, 64.7519
74.000000, 96.034, 64.4823
75.000000, 96.124, 64.2291
76.199997, 96.234, 63.8931
77.500000, 96.345, 63.4755
78.800003, 96.457, 63.1686
80.000000, 96.554, 62.9383
81.199997, 96.650, 62.6983
82.500000, 96.760, 62.4314
83.800003, 96.867, 62.1021
85.000000, 96.962, 61.7527
86.199997, 97.055, 61.4407
87.500000, 97.152, 61.1010
88.500000, 97.225, 60.8595
90.000000, 97.330, 60.5236
91.199997, 97.414, 60.2492
92.500000, 97.511, 59.9877
93.800003, 97.602, 59.6855
95.000000, 97.681, 59.3985
96.199997, 97.757, 59.1124
97.500000, 97.837, 58.7995
98.800003, 97.922, 58.5388
100.000000, 98.000, 58.3175
101.500000, 98.086, 57.9628
103.000000, 98.170, 57.5794
104.400002, 98.248, 57.2490
106.000000, 98.341, 56.8789
107.500000, 98.432, 56.5146
109.000000, 98.518, 56.1554
110.599998, 98.604, 55.7942
112.000000, 98.678, 55.5123
113.800003, 98.765, 55.1438
115.000000, 98.822, 54.8837
117.199997, 98.931, 54.4220
118.000000, 98.971, 54.2512
120.599998, 99.094, 53.7181
122.000000, 99.158, 53.4343
124.099998, 99.254, 52.9883
125.000000, 99.294, 52.8053
126.500000, 99.360, 52.5082
128.000000, 99.422, 52.2004
131.500000, 99.568, 51.5021
132.000000, 99.588, 51.4043
134.000000, 99.670, 51.0123
136.000000, 99.747, 50.6203
138.000000, 99.823, 50.2226
140.000000, 99.899, 49.8451
143.000000, 100.003, 49.3003
145.000000, 100.075, 48.9117
147.500000, 100.164, 48.4133
150.000000, 100.252, 47.9566
152.500000, 100.339, 47.5251
155.000000, 100.417, 47.0907
157.500000, 100.494, 46.6200
160.000000, 100.570, 46.1653
162.500000, 100.644, 45.7304
165.000000, 100.714, 45.2897
167.500000, 100.783, 44.8537
170.000000, 100.850, 44.4060
172.500000, 100.915, 43.9688
175.000000, 100.982, 43.5351
177.500000, 101.047, 43.1055
180.000000, 101.108, 42.6687
182.500000, 101.166, 42.2392
185.000000, 101.223, 41.8316
187.500000, 101.277, 41.4366
190.000000, 101.331, 41.0339
192.500000, 101.384, 40.6183
195.000000, 101.438, 40.2001
197.500000, 101.490, 39.7970
200.000000, 101.541, 39.4029
203.000000, 101.600, 38.9305
206.000000, 101.656, 38.4504
209.000000, 101.711, 37.9765
212.000000, 101.763, 37.5194
214.000000, 101.797, 37.2100
218.000000, 101.867, 36.5917
220.000000, 101.900, 36.2846
224.000000, 101.963, 35.6715
227.000000, 102.007, 35.2177
230.000000, 102.051, 34.7681
233.000000, 102.095, 34.3171
236.000000, 102.138, 33.8668
240.000000, 102.194, 33.2754
243.000000, 102.234, 32.8448
247.000000, 102.285, 32.2633
250.000000, 102.323, 31.8221
254.000000, 102.371, 31.2397
258.000000, 102.417, 30.6683
262.000000, 102.463, 30.0979
265.000000, 102.496, 29.6716
269.000000, 102.537, 29.1065
272.000000, 102.567, 28.6786
276.000000, 102.605, 28.1146
280.000000, 102.642, 27.5551
285.000000, 102.686, 26.8497
290.000000, 102.727, 26.1512
295.000000, 102.768, 25.4569
300.000000, 102.805, 24.7571
304.000000, 102.834, 24.1990
307.000000, 102.854, 23.7832
311.000000, 102.881, 23.2305
315.000000, 102.906, 22.6776
320.000000, 102.935, 21.9838
325.000000, 102.962, 21.2871
330.000000, 102.987, 20.5941
335.000000, 103.010, 19.9018
340.000000, 103.031, 19.2091
345.000000, 103.050, 18.5208
350.000000, 103.066, 17.8309
355.000000, 103.081, 17.1362
360.000000, 103.093, 16.4389
365.000000, 103.103, 15.7407
370.000000, 103.111, 15.0398
375.000000, 103.118, 14.3390
382.000000, 103.124, 13.3550
387.000000, 103.126, 12.6474
395.000000, 103.122, 11.5157
400.000000, 103.118, 10.8091
406.000000, 103.109, 9.9576
412.000000, 103.098, 9.0981
418.000000, 103.082, 8.2321
425.000000, 103.059, 7.2118
431.000000, 103.034, 6.3319
437.000000, 103.004, 5.4494
444.000000, 102.961, 4.4137
450.000000, 102.916, 3.5254
455.000000, 102.872, 2.7978
462.000000, 102.798, 1.8271
468.000000, 102.729, 1.0747
475.000000, 102.649, 0.3029
482.000000, 102.578, -0.3915
487.000000, 102.535, -0.8837
494.000000, 102.481, -1.6103
500.000000, 102.436, -2.2799
508.000000, 102.373, -3.2238
515.000000, 102.311, -4.0827
522.000000, 102.243, -4.9552
530.000000, 102.157, -5.9583
538.000000, 102.062, -6.9562
545.000000, 101.973, -7.8217
552.000000, 101.879, -8.6812
560.000000, 101.765, -9.6539
570.000000, 101.612, -10.8508
580.000000, 101.449, -12.0249
590.000000, 101.274, -13.1834
600.000000, 101.087, -14.3254
608.000000, 100.928, -15.2272
615.000000, 100.782, -16.0051
622.000000, 100.627, -16.7704
630.000000, 100.441, -17.6291
640.000000, 100.190, -18.6791
650.000000, 99.915, -19.6875
660.000000, 99.613, -20.6203
670.000000, 99.278, -21.4318
680.000000, 98.906, -22.0555
690.000000, 98.497, -22.3712
700.000000, 98.061, -22.2381
710.000000, 97.619, -21.5225
720.000000, 97.206, -20.1540
730.000000, 96.865, -18.2212
740.000000, 96.630, -15.9891
750.000000, 96.503, -13.7936
762.000000, 96.463, -11.5859
775.000000, 96.489, -9.9127
788.000000, 96.526, -8.9094
800.000000, 96.541, -8.3861
812.000000, 96.527, -8.1019
825.000000, 96.481, -7.9270
838.000000, 96.409, -7.8012
850.000000, 96.325, -7.6866
862.000000, 96.228, -7.5491
875.000000, 96.112, -7.3660
885.000000, 96.019, -7.1959
900.000000, 95.874, -6.8893
912.000000, 95.755, -6.6019
925.000000, 95.626, -6.2534
938.000000, 95.499, -5.8725
950.000000, 95.383, -5.4974
962.000000, 95.270, -5.1055
975.000000, 95.150, -4.6639
988.000000, 95.031, -4.2035
1000.000000, 94.925, -3.7692
1015.000000, 94.797, -3.2219
1030.000000, 94.672, -2.6702
1044.000000, 94.556, -2.1546
1060.000000, 94.427, -1.5661
1075.000000, 94.307, -1.0058
1090.000000, 94.188, -0.4351
1106.000000, 94.058, 0.1955
1120.000000, 93.945, 0.7778
1138.000000, 93.800, 1.5844
1150.000000, 93.705, 2.1639
1172.000000, 93.538, 3.3272
1180.000000, 93.482, 3.7845
1206.000000, 93.324, 5.3883
1220.000000, 93.258, 6.2954
1241.000000, 93.184, 7.6519
1250.000000, 93.162, 8.2180
1265.000000, 93.137, 9.1184
1280.000000, 93.124, 9.9540
1315.000000, 93.121, 11.6025
1320.000000, 93.122, 11.8022
1340.000000, 93.127, 12.5260
1360.000000, 93.131, 13.1396
1380.000000, 93.131, 13.6497
1400.000000, 93.125, 14.0887
1430.000000, 93.104, 14.6425
1450.000000, 93.083, 14.9618
1475.000000, 93.048, 15.3187
1500.000000, 93.006, 15.6439
1525.000000, 92.956, 15.9453
1550.000000, 92.900, 16.2207
1575.000000, 92.838, 16.4807
1600.000000, 92.771, 16.7331
1625.000000, 92.700, 16.9777
1650.000000, 92.626, 17.2149
1675.000000, 92.548, 17.4432
1700.000000, 92.464, 17.6788
1725.000000, 92.376, 17.9202
1750.000000, 92.284, 18.1680
1775.000000, 92.190, 18.4147
1800.000000, 92.092, 18.6702
1825.000000, 91.992, 18.9375
1850.000000, 91.889, 19.2203
1875.000000, 91.782, 19.5194
1900.000000, 91.673, 19.8393
1925.000000, 91.562, 20.1762
1950.000000, 91.450, 20.5257
1975.000000, 91.337, 20.8957
2000.000000, 91.225, 21.2932
2030.000000, 91.088, 21.7978
2060.000000, 90.949, 22.3331
2090.000000, 90.811, 22.9059
2120.000000, 90.675, 23.5101
2140.000000, 90.585, 23.9327
2180.000000, 90.408, 24.8274
2200.000000, 90.321, 25.2919
2240.000000, 90.151, 26.2570
2270.000000, 90.029, 27.0166
2300.000000, 89.909, 27.8026
2330.000000, 89.793, 28.6092
2360.000000, 89.682, 29.4412
2400.000000, 89.542, 30.5865
2430.000000, 89.443, 31.4630
2470.000000, 89.319, 32.6553
2500.000000, 89.232, 33.5631
2540.000000, 89.125, 34.8004
2580.000000, 89.028, 36.0545
2620.000000, 88.943, 37.3087
2650.000000, 88.887, 38.2491
2690.000000, 88.821, 39.4965
2720.000000, 88.778, 40.4242
2760.000000, 88.729, 41.6403
2800.000000, 88.690, 42.8344
2850.000000, 88.655, 44.3057
2900.000000, 88.631, 45.7235
2950.000000, 88.619, 47.0724
3000.000000, 88.613, 48.3797
3040.000000, 88.615, 49.3934
3070.000000, 88.619, 50.1409
3110.000000, 88.627, 51.1400
3150.000000, 88.639, 52.1529
3200.000000, 88.664, 53.4462
3250.000000, 88.708, 54.7556
3300.000000, 88.777, 56.0609
3350.000000, 88.873, 57.3179
3400.000000, 88.997, 58.4633
3450.000000, 89.143, 59.4676
3500.000000, 89.309, 60.2994
3550.000000, 89.487, 60.9204
3600.000000, 89.671, 61.3335
3650.000000, 89.856, 61.5500
3700.000000, 90.037, 61.5809
3750.000000, 90.210, 61.4573
3820.000000, 90.436, 61.0572
3870.000000, 90.585, 60.6410
3950.000000, 90.807, 59.7833
4000.000000, 90.934, 59.1328
4060.000000, 91.074, 58.2906
4120.000000, 91.210, 57.3590
4180.000000, 91.341, 56.2983
4250.000000, 91.486, 54.8893
4310.000000, 91.600, 53.5204
4370.000000, 91.703, 52.0006
4440.000000, 91.806, 50.0186
4500.000000, 91.875, 48.1338
4550.000000, 91.915, 46.4350
4620.000000, 91.937, 43.8613
4680.000000, 91.918, 41.4941
4750.000000, 91.843, 38.6076
4820.000000, 91.704, 35.6727
4870.000000, 91.565, 33.5916
4940.000000, 91.320, 30.7630
5000.000000, 91.064, 28.4609
5080.000000, 90.665, 25.6513
5150.000000, 90.272, 23.4883
5220.000000, 89.847, 21.6204
5300.000000, 89.333, 19.8641
5380.000000, 88.802, 18.4962
5450.000000, 88.329, 17.6148
5520.000000, 87.855, 17.0101
5600.000000, 87.316, 16.6280
5700.000000, 86.652, 16.5998
5800.000000, 86.008, 17.0501
5900.000000, 85.401, 17.9481
6000.000000, 84.843, 19.2263
6080.000000, 84.430, 20.4389
6150.000000, 84.092, 21.6061
6220.000000, 83.777, 22.8555
6300.000000, 83.444, 24.3621
6400.000000, 83.067, 26.3558
6500.000000, 82.732, 28.4474
6600.000000, 82.438, 30.6133
6700.000000, 82.184, 32.8322
6800.000000, 81.970, 35.1005
6900.000000, 81.791, 37.4002
7000.000000, 81.650, 39.7216
7100.000000, 81.543, 42.0935
7200.000000, 81.481, 44.5677
7300.000000, 81.489, 47.0896
7400.000000, 81.558, 49.4042
7500.000000, 81.659, 51.5245
7620.000000, 81.826, 53.9873
7750.000000, 82.080, 56.6033
7880.000000, 82.429, 59.1296
8000.000000, 82.849, 61.3284
8120.000000, 83.382, 63.2709
8250.000000, 84.117, 64.9660
8380.000000, 85.043, 65.9835
8500.000000, 86.100, 65.9189
8620.000000, 87.373, 64.3172
8750.000000, 88.974, 59.8014
8850.000000, 90.266, 53.4631
9000.000000, 91.896, 38.2639
9120.000000, 92.464, 22.0159
9250.000000, 92.029, 3.6379
9380.000000, 90.646, -11.7126
9500.000000, 88.929, -21.5413
9620.000000, 87.146, -27.4630
9750.000000, 85.374, -30.6417
9880.000000, 83.852, -31.6777
10000.000000, 82.668, -31.5520
10150.000000, 81.446, -30.7238
10300.000000, 80.430, -29.6628
10440.000000, 79.598, -28.6156
10600.000000, 78.725, -27.2581
10750.000000, 77.966, -25.6600
10900.000000, 77.276, -23.6125
11060.000000, 76.648, -20.8990
11200.000000, 76.207, -18.2709
11380.000000, 75.780, -14.8328
11500.000000, 75.572, -12.5939
11720.000000, 75.332, -8.5834
11800.000000, 75.287, -7.1803
12060.000000, 75.279, -2.8110
12200.000000, 75.372, -0.5296
12410.000000, 75.650, 2.6753
12500.000000, 75.821, 3.9343
12650.000000, 76.182, 5.8603
12800.000000, 76.638, 7.5355
13150.000000, 78.135, 10.0832
13200.000000, 78.409, 10.2263
13400.000000, 79.695, 9.9333
13600.000000, 81.318, 7.4564
13800.000000, 83.242, 1.2350
14000.000000, 85.184, -10.6076
14300.000000, 86.829, -39.1763
14500.000000, 86.373, -60.4731
14750.000000, 84.337, -81.4275
15000.000000, 81.766, -93.4699
15250.000000, 79.494, -99.0878
15500.000000, 77.730, -101.3947
15750.000000, 76.417, -102.1406
16000.000000, 75.462, -102.1689
16250.000000, 74.811, -102.0010
16500.000000, 74.431, -101.8943
16750.000000, 74.283, -102.2007
17000.000000, 74.326, -103.3558
17250.000000, 74.526, -105.7918
17500.000000, 74.813, -110.0261
17750.000000, 75.078, -116.7848
18000.000000, 75.124, -126.4908
18250.000000, 74.681, -138.7447
18500.000000, 73.516, -152.0888
18750.000000, 71.563, -164.4920
19000.000000, 68.948, -174.2456
19250.000000, 65.878, 179.2934
19500.000000, 62.550, 175.9091
19750.000000, 59.222, 175.1746
