* Measurement data measured by REW V5.40 beta 98
* Source: Input device not selected, no input selected, L, volume: no control
* Format: 256k Log Swept Sine, 1 sweep at -11.0 dBFS with no timing reference
* Dated: Aug 27, 2025 11:27:06 PM
* REW Settings:
*  C-weighting compensation: Off
*  Target level: 75.0 dB
* Note: ; 
* Measurement: EO-IG955BBE L
* Smoothing: 1/24 octave
* Frequency Step: 1/48 octave
* Start Frequency: 20.300 Hz
*
* Freq(Hz), SPL(dB), Phase(degrees)
20.299999, 83.276, 46.7464
20.600000, 83.314, 46.4939
20.900000, 83.372, 46.0760
21.200001, 83.436, 45.5073
21.400000, 83.476, 45.0786
21.799999, 83.539, 44.2521
22.000000, 83.562, 43.9203
22.400000, 83.603, 43.5055
22.700001, 83.641, 43.3863
23.000000, 83.691, 43.3397
23.299999, 83.753, 43.2606
23.600000, 83.818, 43.0720
24.000000, 83.897, 42.6217
24.299999, 83.942, 42.1802
24.700001, 83.986, 41.5637
25.000000, 84.009, 41.1396
25.400000, 84.034, 40.6593
25.799999, 84.053, 40.2672
26.200001, 84.069, 39.9409
26.500000, 84.082, 39.7274
26.900000, 84.111, 39.4576
27.200001, 84.146, 39.2360
27.600000, 84.210, 38.8712
28.000000, 84.277, 38.4216
28.500000, 84.336, 37.8560
29.000000, 84.354, 37.4920
29.500000, 84.357, 37.3824
30.000000, 84.380, 37.2976
30.400000, 84.416, 37.0537
30.700001, 84.442, 36.7465
31.100000, 84.467, 36.2564
31.500000, 84.477, 35.8329
32.000000, 84.484, 35.5594
32.500000, 84.509, 35.5132
33.000000, 84.555, 35.4539
33.500000, 84.608, 35.2141
34.000000, 84.654, 34.8078
34.500000, 84.693, 34.3433
35.000000, 84.720, 33.9223
35.500000, 84.730, 33.6264
36.000000, 84.731, 33.5004
36.500000, 84.742, 33.4887
37.000000, 84.778, 33.4268
37.500000, 84.827, 33.1764
38.200001, 84.862, 32.6155
38.700001, 84.848, 32.3021
39.500000, 84.821, 32.1244
40.000000, 84.835, 32.0268
40.599998, 84.883, 31.7653
41.200001, 84.941, 31.4244
41.799999, 84.997, 31.1307
42.500000, 85.049, 30.8464
43.099998, 85.073, 30.6013
43.700001, 85.075, 30.3759
44.400002, 85.065, 30.1698
45.000000, 85.060, 29.9647
45.500000, 85.066, 29.7020
46.200001, 85.089, 29.2585
46.799999, 85.121, 29.0375
47.500000, 85.171, 29.1533
48.200001, 85.212, 29.4253
48.700001, 85.217, 29.4582
49.400002, 85.187, 29.1505
50.000000, 85.163, 28.7222
50.799999, 85.179, 28.2598
51.500000, 85.216, 28.0607
52.200001, 85.224, 27.9878
53.000000, 85.211, 27.9222
53.799999, 85.223, 27.7596
54.500000, 85.248, 27.6109
55.200001, 85.262, 27.5923
56.000000, 85.267, 27.6158
57.000000, 85.247, 27.3764
58.000000, 85.186, 27.3224
59.000000, 85.197, 27.3759
60.000000, 85.284, 26.9170
60.799999, 85.347, 26.6690
61.500000, 85.373, 26.7533
62.200001, 85.373, 26.9708
63.000000, 85.375, 27.1120
64.000000, 85.408, 26.9379
65.000000, 85.426, 26.6105
66.000000, 85.416, 26.2662
67.000000, 85.419, 26.0908
68.000000, 85.469, 26.2368
69.000000, 85.512, 26.2167
70.000000, 85.506, 25.9434
71.000000, 85.485, 25.6931
72.000000, 85.464, 25.5854
73.000000, 85.464, 25.5843
74.000000, 85.485, 25.5985
75.000000, 85.503, 25.5525
76.199997, 85.523, 25.3767
77.500000, 85.561, 25.3342
78.800003, 85.576, 25.3819
80.000000, 85.588, 25.2905
81.199997, 85.596, 25.2548
82.500000, 85.598, 25.1930
83.800003, 85.589, 24.9238
85.000000, 85.568, 25.0007
86.199997, 85.586, 25.2360
87.500000, 85.611, 25.2600
88.500000, 85.603, 25.2608
90.000000, 85.603, 25.1247
91.199997, 85.619, 25.0210
92.500000, 85.639, 24.9512
93.800003, 85.649, 24.8474
95.000000, 85.644, 24.8718
96.199997, 85.642, 24.9012
97.500000, 85.645, 24.8260
98.800003, 85.651, 24.8127
100.000000, 85.672, 25.1620
101.500000, 85.714, 25.6608
103.000000, 85.708, 25.4385
104.400002, 85.689, 25.0667
106.000000, 85.685, 25.0651
107.500000, 85.693, 25.2535
109.000000, 85.699, 25.1999
110.599998, 85.695, 25.0793
112.000000, 85.702, 25.1178
113.800003, 85.714, 25.3367
115.000000, 85.719, 25.4194
117.199997, 85.733, 25.4688
118.000000, 85.734, 25.4981
120.599998, 85.731, 25.6161
122.000000, 85.736, 25.5710
124.099998, 85.733, 25.5875
125.000000, 85.732, 25.5936
126.500000, 85.733, 25.5842
128.000000, 85.738, 25.5887
131.500000, 85.755, 25.7545
132.000000, 85.758, 25.7898
134.000000, 85.761, 25.9009
136.000000, 85.758, 25.9660
138.000000, 85.764, 26.0318
140.000000, 85.772, 26.1298
143.000000, 85.788, 26.2681
145.000000, 85.788, 26.4826
147.500000, 85.775, 26.6987
150.000000, 85.768, 26.7309
152.500000, 85.765, 26.9090
155.000000, 85.759, 27.0438
157.500000, 85.757, 27.1764
160.000000, 85.762, 27.2908
162.500000, 85.757, 27.4194
165.000000, 85.748, 27.4936
167.500000, 85.753, 27.6848
170.000000, 85.763, 27.8631
172.500000, 85.765, 28.0099
175.000000, 85.763, 28.2250
177.500000, 85.762, 28.3716
180.000000, 85.776, 28.5028
182.500000, 85.786, 28.6238
185.000000, 85.782, 28.8120
187.500000, 85.766, 28.9851
190.000000, 85.740, 29.1487
192.500000, 85.723, 29.3052
195.000000, 85.719, 29.4718
197.500000, 85.723, 29.6275
200.000000, 85.718, 29.8575
203.000000, 85.712, 30.1222
206.000000, 85.706, 30.2978
209.000000, 85.709, 30.5134
212.000000, 85.713, 30.7565
214.000000, 85.711, 30.8909
218.000000, 85.698, 31.1180
220.000000, 85.685, 31.2442
224.000000, 85.670, 31.6138
227.000000, 85.670, 31.8385
230.000000, 85.669, 32.0072
233.000000, 85.664, 32.1684
236.000000, 85.658, 32.3696
240.000000, 85.640, 32.7559
243.000000, 85.630, 33.0319
247.000000, 85.624, 33.3811
250.000000, 85.619, 33.6219
254.000000, 85.609, 33.9105
258.000000, 85.599, 34.2330
262.000000, 85.587, 34.5793
265.000000, 85.575, 34.8307
269.000000, 85.561, 35.1320
272.000000, 85.554, 35.3597
276.000000, 85.545, 35.6775
280.000000, 85.531, 36.0229
285.000000, 85.511, 36.4284
290.000000, 85.494, 36.8059
295.000000, 85.481, 37.1917
300.000000, 85.459, 37.5825
304.000000, 85.439, 37.8953
307.000000, 85.426, 38.1393
311.000000, 85.407, 38.4877
315.000000, 85.387, 38.8264
320.000000, 85.360, 39.2276
325.000000, 85.328, 39.5852
330.000000, 85.286, 39.9066
335.000000, 85.236, 40.2963
340.000000, 85.175, 40.7454
345.000000, 85.108, 41.2969
350.000000, 85.041, 42.0111
355.000000, 84.977, 42.8888
360.000000, 84.936, 43.8115
365.000000, 84.932, 44.7214
370.000000, 84.948, 45.5784
375.000000, 84.970, 46.3002
382.000000, 84.996, 47.1598
387.000000, 85.007, 47.7139
395.000000, 85.017, 48.5314
400.000000, 85.019, 49.0187
406.000000, 85.015, 49.6126
412.000000, 85.005, 50.2186
418.000000, 84.991, 50.8105
425.000000, 84.976, 51.5267
431.000000, 84.965, 52.1371
437.000000, 84.950, 52.7582
444.000000, 84.930, 53.5098
450.000000, 84.913, 54.1278
455.000000, 84.900, 54.6512
462.000000, 84.879, 55.4228
468.000000, 84.862, 56.0981
475.000000, 84.848, 56.8743
482.000000, 84.829, 57.6578
487.000000, 84.812, 58.1906
494.000000, 84.789, 58.9447
500.000000, 84.771, 59.6233
508.000000, 84.746, 60.5598
515.000000, 84.725, 61.3975
522.000000, 84.704, 62.2218
530.000000, 84.683, 63.1511
538.000000, 84.666, 64.0794
545.000000, 84.651, 64.9170
552.000000, 84.633, 65.7678
560.000000, 84.612, 66.7398
570.000000, 84.589, 67.9881
580.000000, 84.569, 69.2002
590.000000, 84.547, 70.4213
600.000000, 84.531, 71.6814
608.000000, 84.517, 72.6911
615.000000, 84.501, 73.5698
622.000000, 84.486, 74.4575
630.000000, 84.470, 75.5037
640.000000, 84.452, 76.8245
650.000000, 84.440, 78.1771
660.000000, 84.435, 79.5583
670.000000, 84.436, 80.9432
680.000000, 84.439, 82.3284
690.000000, 84.446, 83.6911
700.000000, 84.457, 85.0541
710.000000, 84.472, 86.4046
720.000000, 84.490, 87.7294
730.000000, 84.508, 89.0407
740.000000, 84.527, 90.3538
750.000000, 84.547, 91.6545
762.000000, 84.573, 93.2122
775.000000, 84.600, 94.9051
788.000000, 84.633, 96.6369
800.000000, 84.669, 98.2292
812.000000, 84.709, 99.7875
825.000000, 84.757, 101.4748
838.000000, 84.806, 103.1690
850.000000, 84.853, 104.7000
862.000000, 84.899, 106.2157
875.000000, 84.952, 107.8392
885.000000, 84.993, 109.0838
900.000000, 85.049, 110.9597
912.000000, 85.094, 112.4951
925.000000, 85.146, 114.2001
938.000000, 85.205, 115.9550
950.000000, 85.269, 117.5996
962.000000, 85.343, 119.2501
975.000000, 85.432, 121.0287
988.000000, 85.531, 122.7761
1000.000000, 85.632, 124.3580
1015.000000, 85.768, 126.2881
1030.000000, 85.913, 128.1439
1044.000000, 86.055, 129.8235
1060.000000, 86.221, 131.6528
1075.000000, 86.378, 133.2818
1090.000000, 86.538, 134.8643
1106.000000, 86.713, 136.5007
1120.000000, 86.867, 137.8712
1138.000000, 87.065, 139.5353
1150.000000, 87.197, 140.5932
1172.000000, 87.431, 142.4586
1180.000000, 87.514, 143.1167
1206.000000, 87.781, 145.1567
1220.000000, 87.921, 146.2123
1241.000000, 88.128, 147.7509
1250.000000, 88.214, 148.3924
1265.000000, 88.356, 149.4304
1280.000000, 88.495, 150.4381
1315.000000, 88.805, 152.7315
1320.000000, 88.848, 153.0528
1340.000000, 89.018, 154.3219
1360.000000, 89.182, 155.5751
1380.000000, 89.341, 156.8245
1400.000000, 89.497, 158.0611
1430.000000, 89.728, 159.8891
1450.000000, 89.880, 161.0936
1475.000000, 90.065, 162.5903
1500.000000, 90.249, 164.0867
1525.000000, 90.432, 165.5802
1550.000000, 90.616, 167.0541
1575.000000, 90.799, 168.5117
1600.000000, 90.984, 169.9665
1625.000000, 91.168, 171.4084
1650.000000, 91.353, 172.8313
1675.000000, 91.540, 174.2339
1700.000000, 91.730, 175.6264
1725.000000, 91.923, 176.9941
1750.000000, 92.119, 178.3315
1775.000000, 92.317, 179.6498
1800.000000, 92.518, -179.0598
1825.000000, 92.720, -177.8039
1850.000000, 92.926, -176.5769
1875.000000, 93.135, -175.3861
1900.000000, 93.348, -174.2333
1925.000000, 93.564, -173.1205
1950.000000, 93.783, -172.0493
1975.000000, 94.004, -171.0204
2000.000000, 94.228, -170.0432
2030.000000, 94.500, -168.9392
2060.000000, 94.777, -167.9146
2090.000000, 95.057, -166.9762
2120.000000, 95.341, -166.1343
2140.000000, 95.531, -165.6286
2180.000000, 95.913, -164.7557
2200.000000, 96.104, -164.3910
2240.000000, 96.485, -163.8195
2270.000000, 96.768, -163.5332
2300.000000, 97.047, -163.3715
2330.000000, 97.320, -163.3416
2360.000000, 97.585, -163.4420
2400.000000, 97.921, -163.7747
2430.000000, 98.158, -164.1708
2470.000000, 98.450, -164.8825
2500.000000, 98.647, -165.5412
2540.000000, 98.877, -166.5651
2580.000000, 99.067, -167.7180
2620.000000, 99.214, -168.9564
2650.000000, 99.296, -169.9147
2690.000000, 99.365, -171.1895
2720.000000, 99.390, -172.1186
2760.000000, 99.388, -173.2870
2800.000000, 99.349, -174.3439
2850.000000, 99.258, -175.4623
2900.000000, 99.130, -176.3210
2950.000000, 98.976, -176.9008
3000.000000, 98.805, -177.2012
3040.000000, 98.661, -177.2528
3070.000000, 98.552, -177.1876
3110.000000, 98.408, -176.9733
3150.000000, 98.268, -176.6295
3200.000000, 98.102, -176.0365
3250.000000, 97.949, -175.2878
3300.000000, 97.811, -174.4171
3350.000000, 97.691, -173.4618
3400.000000, 97.590, -172.4455
3450.000000, 97.507, -171.3990
3500.000000, 97.443, -170.3495
3550.000000, 97.399, -169.3284
3600.000000, 97.371, -168.3610
3650.000000, 97.360, -167.4686
3700.000000, 97.363, -166.6772
3750.000000, 97.378, -166.0159
3820.000000, 97.412, -165.3541
3870.000000, 97.440, -165.0982
3950.000000, 97.478, -165.1063
4000.000000, 97.487, -165.3851
4060.000000, 97.473, -165.9987
4120.000000, 97.419, -166.8964
4180.000000, 97.312, -168.0278
4250.000000, 97.108, -169.5418
4310.000000, 96.858, -170.8956
4370.000000, 96.536, -172.1819
4440.000000, 96.074, -173.4479
4500.000000, 95.616, -174.2256
4550.000000, 95.201, -174.6175
4620.000000, 94.584, -174.7591
4680.000000, 94.031, -174.5083
4750.000000, 93.371, -173.8027
4820.000000, 92.703, -172.6754
4870.000000, 92.225, -171.6233
4940.000000, 91.563, -169.8218
5000.000000, 91.004, -167.9973
5080.000000, 90.279, -165.1989
5150.000000, 89.668, -162.4549
5220.000000, 89.082, -159.4830
5300.000000, 88.442, -155.8314
5380.000000, 87.840, -151.9574
5450.000000, 87.345, -148.4382
5520.000000, 86.878, -144.8305
5600.000000, 86.374, -140.6608
5700.000000, 85.779, -135.4917
5800.000000, 85.195, -130.3747
5900.000000, 84.596, -125.1499
6000.000000, 83.976, -119.5656
6080.000000, 83.490, -114.6886
6150.000000, 83.095, -110.1030
6220.000000, 82.741, -105.3056
6300.000000, 82.393, -99.6951
6400.000000, 82.033, -92.6369
6500.000000, 81.747, -85.6414
6600.000000, 81.523, -78.7883
6700.000000, 81.338, -72.1081
6800.000000, 81.190, -65.5372
6900.000000, 81.069, -59.0570
7000.000000, 80.975, -52.5784
7100.000000, 80.918, -46.0872
7200.000000, 80.905, -39.6501
7300.000000, 80.928, -33.3130
7400.000000, 80.985, -27.0173
7500.000000, 81.084, -20.7115
7620.000000, 81.264, -13.1752
7750.000000, 81.551, -5.1407
7880.000000, 81.939, 2.7393
8000.000000, 82.409, 9.8097
8120.000000, 83.002, 16.5698
8250.000000, 83.804, 23.4031
8380.000000, 84.805, 29.4363
8500.000000, 85.935, 33.8802
8620.000000, 87.283, 36.5553
8750.000000, 88.945, 36.2220
8850.000000, 90.238, 32.7032
9000.000000, 91.714, 21.3556
9120.000000, 92.023, 8.6002
9250.000000, 91.273, -4.8694
9380.000000, 89.667, -14.2803
9500.000000, 87.862, -18.2865
9620.000000, 86.073, -18.4938
9750.000000, 84.332, -15.7898
9880.000000, 82.837, -11.2475
10000.000000, 81.655, -6.1459
10150.000000, 80.395, 0.9385
10300.000000, 79.325, 8.5049
10440.000000, 78.460, 15.8722
10600.000000, 77.603, 24.5898
10750.000000, 76.917, 32.9895
10900.000000, 76.340, 41.5716
11060.000000, 75.844, 50.8162
11200.000000, 75.498, 58.8865
11380.000000, 75.154, 69.1482
11500.000000, 74.982, 75.9308
11720.000000, 74.764, 88.2849
11800.000000, 74.718, 92.7739
12060.000000, 74.714, 107.2863
12200.000000, 74.802, 115.0259
12410.000000, 75.059, 126.4913
12500.000000, 75.220, 131.3177
12650.000000, 75.556, 139.2161
12800.000000, 75.978, 146.9012
13150.000000, 77.340, 163.7556
13200.000000, 77.587, 166.0099
13400.000000, 78.746, 174.4348
13600.000000, 80.225, -178.6090
13800.000000, 82.068, -174.3863
14000.000000, 84.160, -174.9893
14300.000000, 86.734, 171.4493
14500.000000, 87.107, 156.2651
14750.000000, 85.701, 139.7510
15000.000000, 83.173, 132.7310
15250.000000, 80.685, 134.4220
15500.000000, 78.708, 141.0173
15750.000000, 77.245, 149.7647
16000.000000, 76.194, 159.4368
16250.000000, 75.477, 169.4094
16500.000000, 75.033, 179.2780
16750.000000, 74.817, -171.1208
17000.000000, 74.799, -162.0891
17250.000000, 74.957, -154.0700
17500.000000, 75.247, -147.6451
17750.000000, 75.585, -143.5051
18000.000000, 75.821, -142.3355
18250.000000, 75.724, -144.3300
18500.000000, 75.043, -148.7335
18750.000000, 73.609, -153.8190
19000.000000, 71.426, -157.5928
19250.000000, 68.638, -158.6566
19500.000000, 65.450, -156.6298
19750.000000, 62.173, -152.2068
