* Measurement data measured by REW V5.31.3
* Source: Input device not selected, no input selected, L, volume: no control
* Format: 256k Log Swept Sine, 1 sweep at -12.0 dBFS with no timing reference
* Dated: Oct 25, 2024 11:11:58 PM
* REW Settings:
*  C-weighting compensation: Off
*  Target level: 75.0 dB
* Note: ; 
* Measurement: Gate (Stock M) L
* Smoothing: 1/24 octave
* Frequency Step: 1/48 octave
* Start Frequency: 20.300 Hz
*
* Freq(Hz), SPL(dB), Phase(degrees)
20.299999, 77.184, -160.6839
20.600000, 77.181, -160.7260
20.900000, 77.177, -160.8016
21.200001, 77.175, -160.9941
21.400000, 77.174, -161.2278
21.799999, 77.157, -161.9730
22.000000, 77.135, -162.4546
22.400000, 77.058, -163.4800
22.700001, 76.983, -164.1700
23.000000, 76.917, -164.7235
23.299999, 76.878, -165.1618
23.600000, 76.879, -165.5655
24.000000, 76.936, -166.1981
24.299999, 77.003, -166.7839
24.700001, 77.095, -167.6406
25.000000, 77.155, -168.2463
25.400000, 77.218, -168.8931
25.799999, 77.259, -169.3145
26.200001, 77.272, -169.5223
26.500000, 77.260, -169.5527
26.900000, 77.227, -169.4637
27.200001, 77.201, -169.3645
27.600000, 77.185, -169.3564
28.000000, 77.193, -169.6810
28.500000, 77.207, -170.6257
29.000000, 77.182, -171.8174
29.500000, 77.114, -172.7177
30.000000, 77.034, -173.1188
30.400000, 76.973, -173.2151
30.700001, 76.928, -173.2545
31.100000, 76.871, -173.3089
31.500000, 76.833, -173.3488
32.000000, 76.859, -173.3735
32.500000, 76.982, -173.5054
33.000000, 77.141, -173.9011
33.500000, 77.238, -174.5352
34.000000, 77.220, -175.2535
34.500000, 77.107, -175.9380
35.000000, 76.973, -176.5605
35.500000, 76.900, -177.1380
36.000000, 76.916, -177.6901
36.500000, 76.974, -178.2005
37.000000, 76.992, -178.5875
37.500000, 76.928, -178.7696
38.200001, 76.771, -178.8871
38.700001, 76.703, -179.2619
39.500000, 76.718, -180.4352
40.000000, 76.772, -181.0020
40.599998, 76.849, -181.2506
41.200001, 76.881, -181.4346
41.799999, 76.806, -181.7974
42.500000, 76.643, -182.0325
43.099998, 76.583, -181.9705
43.700001, 76.623, -182.2017
44.400002, 76.643, -183.2139
45.000000, 76.559, -184.1589
45.500000, 76.467, -184.4455
46.200001, 76.443, -183.8678
46.799999, 76.534, -183.1644
47.500000, 76.576, -183.0991
48.200001, 76.389, -183.6269
48.700001, 76.190, -183.8808
49.400002, 76.038, -184.0728
50.000000, 76.050, -184.5601
50.799999, 76.031, -185.4756
51.500000, 75.919, -185.7387
52.200001, 75.856, -185.6133
53.000000, 75.905, -185.5846
53.799999, 75.998, -185.4840
54.500000, 76.035, -185.3005
55.200001, 75.966, -185.2006
56.000000, 75.800, -185.0445
57.000000, 75.663, -184.7385
58.000000, 75.669, -185.0519
59.000000, 75.650, -186.0828
60.000000, 75.567, -186.3804
60.799999, 75.582, -186.2202
61.500000, 75.620, -186.7281
62.200001, 75.590, -187.6552
63.000000, 75.492, -188.2613
64.000000, 75.406, -188.0896
65.000000, 75.340, -187.9446
66.000000, 75.286, -188.3972
67.000000, 75.218, -189.0767
68.000000, 75.137, -189.1549
69.000000, 75.112, -189.0363
70.000000, 75.111, -189.2602
71.000000, 75.087, -189.5718
72.000000, 75.033, -189.5986
73.000000, 74.983, -189.2448
74.000000, 74.950, -189.1309
75.000000, 74.893, -189.6815
76.199997, 74.810, -190.2443
77.500000, 74.748, -189.7229
78.800003, 74.676, -189.1446
80.000000, 74.622, -189.5934
81.199997, 74.560, -190.2528
82.500000, 74.508, -190.3632
83.800003, 74.459, -190.3556
85.000000, 74.377, -190.4893
86.199997, 74.299, -190.4064
87.500000, 74.256, -189.8798
88.500000, 74.216, -189.6317
90.000000, 74.157, -189.7491
91.199997, 74.115, -189.9787
92.500000, 74.038, -190.2142
93.800003, 73.962, -190.1370
95.000000, 73.912, -189.7580
96.199997, 73.883, -189.6846
97.500000, 73.851, -189.8378
98.800003, 73.792, -189.7871
100.000000, 73.724, -189.8023
101.500000, 73.656, -189.7052
103.000000, 73.588, -189.5858
104.400002, 73.506, -189.6797
106.000000, 73.418, -189.7646
107.500000, 73.376, -189.5867
109.000000, 73.356, -189.2196
110.599998, 73.290, -189.0841
112.000000, 73.226, -189.1103
113.800003, 73.165, -189.0666
115.000000, 73.128, -188.9371
117.199997, 73.078, -188.6036
118.000000, 73.055, -188.5179
120.599998, 72.983, -188.4778
122.000000, 72.941, -188.4468
124.099998, 72.850, -188.3135
125.000000, 72.811, -188.2248
126.500000, 72.752, -188.0767
128.000000, 72.696, -187.8392
131.500000, 72.598, -187.4158
132.000000, 72.585, -187.4001
134.000000, 72.528, -187.1881
136.000000, 72.474, -186.8061
138.000000, 72.425, -186.5413
140.000000, 72.367, -186.4145
143.000000, 72.284, -186.1575
145.000000, 72.233, -185.8921
147.500000, 72.166, -185.5675
150.000000, 72.104, -185.2347
152.500000, 72.045, -184.9198
155.000000, 71.990, -184.5700
157.500000, 71.929, -184.1997
160.000000, 71.871, -183.9552
162.500000, 71.818, -183.6650
165.000000, 71.770, -183.4102
167.500000, 71.714, -183.0674
170.000000, 71.664, -182.6447
172.500000, 71.608, -182.2880
175.000000, 71.549, -181.9940
177.500000, 71.494, -181.6223
180.000000, 71.451, -181.2179
182.500000, 71.407, -180.9307
185.000000, 71.363, -180.7165
187.500000, 71.313, -180.3995
190.000000, 71.257, -179.8981
192.500000, 71.216, -179.4406
195.000000, 71.179, -179.1528
197.500000, 71.140, -178.8839
200.000000, 71.103, -178.5707
203.000000, 71.054, -178.1402
206.000000, 71.011, -177.7486
209.000000, 70.968, -177.3507
212.000000, 70.928, -176.8440
214.000000, 70.906, -176.4932
218.000000, 70.844, -175.9019
220.000000, 70.810, -175.6569
224.000000, 70.748, -175.2132
227.000000, 70.718, -174.8010
230.000000, 70.687, -174.3453
233.000000, 70.645, -173.8522
236.000000, 70.601, -173.4560
240.000000, 70.551, -172.9174
243.000000, 70.527, -172.5108
247.000000, 70.496, -172.0506
250.000000, 70.464, -171.6700
254.000000, 70.414, -170.9881
258.000000, 70.371, -170.3233
262.000000, 70.346, -169.7927
265.000000, 70.330, -169.3775
269.000000, 70.302, -168.8183
272.000000, 70.278, -168.4417
276.000000, 70.244, -167.9359
280.000000, 70.199, -167.4183
285.000000, 70.151, -166.7400
290.000000, 70.116, -166.0693
295.000000, 70.079, -165.4090
300.000000, 70.039, -164.7643
304.000000, 70.010, -164.1992
307.000000, 69.989, -163.7693
311.000000, 69.955, -163.2669
315.000000, 69.918, -162.7373
320.000000, 69.882, -162.0536
325.000000, 69.862, -161.4591
330.000000, 69.850, -160.8254
335.000000, 69.827, -160.1594
340.000000, 69.793, -159.4979
345.000000, 69.756, -158.8543
350.000000, 69.729, -158.2168
355.000000, 69.705, -157.6390
360.000000, 69.673, -157.1394
365.000000, 69.650, -156.4908
370.000000, 69.637, -155.7966
375.000000, 69.618, -155.1426
382.000000, 69.591, -154.3793
387.000000, 69.572, -153.7728
395.000000, 69.543, -152.7442
400.000000, 69.521, -152.1262
406.000000, 69.489, -151.3760
412.000000, 69.468, -150.6650
418.000000, 69.449, -149.9777
425.000000, 69.430, -149.1226
431.000000, 69.416, -148.4220
437.000000, 69.391, -147.7828
444.000000, 69.366, -146.9504
450.000000, 69.364, -146.1659
455.000000, 69.359, -145.5719
462.000000, 69.343, -144.7688
468.000000, 69.330, -144.0873
475.000000, 69.318, -143.2707
482.000000, 69.297, -142.4698
487.000000, 69.277, -141.8642
494.000000, 69.256, -141.0381
500.000000, 69.247, -140.3810
508.000000, 69.237, -139.5112
515.000000, 69.230, -138.7276
522.000000, 69.224, -137.9412
530.000000, 69.208, -136.9961
538.000000, 69.190, -136.0468
545.000000, 69.185, -135.2896
552.000000, 69.184, -134.5450
560.000000, 69.182, -133.6494
570.000000, 69.174, -132.5769
580.000000, 69.160, -131.4507
590.000000, 69.146, -130.3253
600.000000, 69.144, -129.3048
608.000000, 69.141, -128.4899
615.000000, 69.138, -127.7623
622.000000, 69.136, -127.0488
630.000000, 69.131, -126.2286
640.000000, 69.146, -125.0527
650.000000, 69.155, -123.8782
660.000000, 69.143, -122.7608
670.000000, 69.145, -121.6354
680.000000, 69.160, -120.5599
690.000000, 69.166, -119.5442
700.000000, 69.165, -118.4822
710.000000, 69.174, -117.3287
720.000000, 69.188, -116.2098
730.000000, 69.192, -115.1514
740.000000, 69.200, -114.1286
750.000000, 69.221, -113.0835
762.000000, 69.245, -111.7206
775.000000, 69.266, -110.2561
788.000000, 69.299, -108.8988
800.000000, 69.328, -107.6354
812.000000, 69.361, -106.3395
825.000000, 69.407, -104.9067
838.000000, 69.453, -103.5577
850.000000, 69.495, -102.3374
862.000000, 69.544, -101.0950
875.000000, 69.611, -99.8116
885.000000, 69.667, -98.8446
900.000000, 69.753, -97.3348
912.000000, 69.817, -96.1345
925.000000, 69.879, -94.8523
938.000000, 69.953, -93.6540
950.000000, 70.020, -92.5924
962.000000, 70.075, -91.4452
975.000000, 70.135, -90.0913
988.000000, 70.223, -88.7314
1000.000000, 70.321, -87.5216
1015.000000, 70.438, -86.2510
1030.000000, 70.565, -85.0642
1044.000000, 70.682, -83.9599
1060.000000, 70.812, -82.7345
1075.000000, 70.945, -81.6462
1090.000000, 71.074, -80.5974
1106.000000, 71.210, -79.5260
1120.000000, 71.329, -78.6472
1138.000000, 71.479, -77.6029
1150.000000, 71.578, -76.8903
1172.000000, 71.748, -75.6656
1180.000000, 71.807, -75.2461
1206.000000, 72.006, -73.9908
1220.000000, 72.113, -73.3452
1241.000000, 72.259, -72.3960
1250.000000, 72.316, -71.9863
1265.000000, 72.413, -71.3087
1280.000000, 72.512, -70.6736
1315.000000, 72.724, -69.3955
1320.000000, 72.755, -69.2026
1340.000000, 72.873, -68.3702
1360.000000, 72.985, -67.5083
1380.000000, 73.092, -66.7472
1400.000000, 73.196, -66.0443
1430.000000, 73.348, -64.9226
1450.000000, 73.449, -64.1478
1475.000000, 73.573, -63.1894
1500.000000, 73.698, -62.2372
1525.000000, 73.821, -61.3613
1550.000000, 73.939, -60.5062
1575.000000, 74.065, -59.6486
1600.000000, 74.189, -58.8143
1625.000000, 74.311, -57.9701
1650.000000, 74.423, -57.1535
1675.000000, 74.536, -56.3598
1700.000000, 74.655, -55.5906
1725.000000, 74.772, -54.8169
1750.000000, 74.882, -54.0387
1775.000000, 74.993, -53.3051
1800.000000, 75.108, -52.5816
1825.000000, 75.226, -51.8932
1850.000000, 75.346, -51.2056
1875.000000, 75.462, -50.5282
1900.000000, 75.576, -49.8740
1925.000000, 75.693, -49.2248
1950.000000, 75.812, -48.6141
1975.000000, 75.934, -48.0410
2000.000000, 76.053, -47.4712
2030.000000, 76.186, -46.8345
2060.000000, 76.325, -46.2597
2090.000000, 76.468, -45.7264
2120.000000, 76.615, -45.1957
2140.000000, 76.713, -44.8594
2180.000000, 76.903, -44.2744
2200.000000, 76.993, -44.0135
2240.000000, 77.174, -43.5520
2270.000000, 77.311, -43.2739
2300.000000, 77.444, -43.0370
2330.000000, 77.572, -42.8430
2360.000000, 77.697, -42.7075
2400.000000, 77.859, -42.5959
2430.000000, 77.976, -42.5452
2470.000000, 78.123, -42.5341
2500.000000, 78.229, -42.5801
2540.000000, 78.365, -42.7192
2580.000000, 78.490, -42.9023
2620.000000, 78.604, -43.1618
2650.000000, 78.682, -43.3895
2690.000000, 78.774, -43.7361
2720.000000, 78.834, -44.0213
2760.000000, 78.900, -44.4315
2800.000000, 78.950, -44.8462
2850.000000, 79.001, -45.3899
2900.000000, 79.034, -45.9782
2950.000000, 79.044, -46.5493
3000.000000, 79.036, -47.0953
3040.000000, 79.015, -47.5083
3070.000000, 78.991, -47.8026
3110.000000, 78.949, -48.1531
3150.000000, 78.901, -48.4756
3200.000000, 78.831, -48.8548
3250.000000, 78.749, -49.1706
3300.000000, 78.652, -49.3998
3350.000000, 78.553, -49.5748
3400.000000, 78.448, -49.6892
3450.000000, 78.333, -49.7455
3500.000000, 78.213, -49.7186
3550.000000, 78.094, -49.6370
3600.000000, 77.971, -49.5010
3650.000000, 77.842, -49.2850
3700.000000, 77.716, -49.0516
3750.000000, 77.593, -48.7895
3820.000000, 77.425, -48.2967
3870.000000, 77.305, -47.9080
3950.000000, 77.111, -47.2356
4000.000000, 76.992, -46.7763
4060.000000, 76.857, -46.1777
4120.000000, 76.721, -45.5812
4180.000000, 76.586, -44.9617
4250.000000, 76.436, -44.2298
4310.000000, 76.313, -43.5793
4370.000000, 76.192, -42.9061
4440.000000, 76.052, -42.1200
4500.000000, 75.928, -41.4820
4550.000000, 75.825, -40.9526
4620.000000, 75.686, -40.1539
4680.000000, 75.567, -39.4652
4750.000000, 75.423, -38.6762
4820.000000, 75.278, -37.8585
4870.000000, 75.173, -37.2773
4940.000000, 75.025, -36.4835
5000.000000, 74.903, -35.8116
5080.000000, 74.735, -34.8927
5150.000000, 74.579, -34.0692
5220.000000, 74.418, -33.2101
5300.000000, 74.237, -32.1277
5380.000000, 74.062, -31.0321
5450.000000, 73.905, -30.0912
5520.000000, 73.742, -29.1319
5600.000000, 73.556, -27.9891
5700.000000, 73.326, -26.4439
5800.000000, 73.096, -24.8025
5900.000000, 72.873, -23.0987
6000.000000, 72.656, -21.3231
6080.000000, 72.488, -19.8241
6150.000000, 72.340, -18.4781
6220.000000, 72.195, -17.1144
6300.000000, 72.038, -15.5048
6400.000000, 71.859, -13.3848
6500.000000, 71.701, -11.1862
6600.000000, 71.555, -8.9900
6700.000000, 71.432, -6.7689
6800.000000, 71.326, -4.4542
6900.000000, 71.243, -2.0722
7000.000000, 71.188, 0.3137
7100.000000, 71.160, 2.6209
7200.000000, 71.163, 4.9686
7300.000000, 71.206, 7.2419
7400.000000, 71.288, 9.3528
7500.000000, 71.390, 11.3592
7620.000000, 71.536, 13.5486
7750.000000, 71.747, 15.7474
7880.000000, 72.012, 17.6496
8000.000000, 72.313, 19.0884
8120.000000, 72.675, 20.2180
8250.000000, 73.136, 20.9412
8380.000000, 73.685, 20.9648
8500.000000, 74.287, 20.0361
8620.000000, 74.964, 17.6299
8750.000000, 75.682, 12.7664
8850.000000, 76.112, 7.2241
9000.000000, 76.318, -3.4264
9120.000000, 75.970, -12.6446
9250.000000, 75.096, -21.6437
9380.000000, 73.863, -28.4480
9500.000000, 72.566, -32.4734
9620.000000, 71.237, -34.5718
9750.000000, 69.848, -35.1639
9880.000000, 68.553, -34.4197
10000.000000, 67.452, -32.8336
10150.000000, 66.183, -30.0775
10300.000000, 65.032, -26.5823
10440.000000, 64.056, -22.8328
10600.000000, 63.020, -18.0460
10750.000000, 62.108, -13.0921
10900.000000, 61.278, -7.7667
11060.000000, 60.488, -1.4350
11200.000000, 59.894, 4.9221
11380.000000, 59.314, 14.3623
11500.000000, 59.110, 21.3102
11720.000000, 59.287, 34.0886
11800.000000, 59.527, 38.0889
12060.000000, 60.542, 46.0668
12200.000000, 60.980, 47.6382
12410.000000, 61.303, 48.5620
12500.000000, 61.327, 49.0273
12650.000000, 61.265, 50.2483
12800.000000, 61.175, 52.1358
13150.000000, 61.133, 58.1812
13200.000000, 61.139, 59.2097
13400.000000, 61.217, 63.4098
13600.000000, 61.410, 67.5472
13800.000000, 61.684, 71.4717
14000.000000, 62.042, 75.2864
14300.000000, 62.836, 80.8984
14500.000000, 63.597, 84.1782
14750.000000, 64.790, 87.2675
15000.000000, 66.278, 88.7143
15250.000000, 68.108, 87.4314
15500.000000, 70.186, 81.6223
15750.000000, 72.137, 69.7016
16000.000000, 73.315, 51.9220
16250.000000, 73.261, 32.2302
16500.000000, 72.136, 15.6791
16750.000000, 70.538, 4.3281
17000.000000, 69.004, -2.7964
17250.000000, 67.741, -7.6946
17500.000000, 66.740, -11.9928
17750.000000, 65.892, -16.6146
18000.000000, 65.045, -22.0859
18250.000000, 64.079, -28.3581
18500.000000, 62.900, -34.9954
18750.000000, 61.427, -41.2311
19000.000000, 59.672, -46.1874
19250.000000, 57.706, -49.6814
19500.000000, 55.627, -52.1561
19750.000000, 53.620, -53.2748
20000.000000, 52.250, -52.9005
