* Measurement data measured by REW V5.31.3
* Source: Input device not selected, no input selected, L, volume: no control
* Format: 256k Log Swept Sine, 1 sweep at -12.0 dBFS with no timing reference
* Dated: Oct 25, 2024 11:14:08 PM
* REW Settings:
*  C-weighting compensation: Off
*  Target level: 75.0 dB
* Note: ; 
* Measurement: Gate (Final E MS) L
* Smoothing: 1/24 octave
* Frequency Step: 1/48 octave
* Start Frequency: 20.300 Hz
*
* Freq(Hz), SPL(dB), Phase(degrees)
20.299999, 76.574, -158.6898
20.600000, 76.621, -159.1191
20.900000, 76.648, -159.4629
21.200001, 76.644, -159.6254
21.400000, 76.626, -159.6277
21.799999, 76.586, -159.4866
22.000000, 76.574, -159.4388
22.400000, 76.586, -159.6636
22.700001, 76.613, -160.2524
23.000000, 76.634, -161.1848
23.299999, 76.632, -162.3085
23.600000, 76.600, -163.4129
24.000000, 76.529, -164.5570
24.299999, 76.483, -165.1065
24.700001, 76.466, -165.6074
25.000000, 76.492, -166.0101
25.400000, 76.556, -166.7468
25.799999, 76.619, -167.5774
26.200001, 76.666, -168.1357
26.500000, 76.699, -168.1948
26.900000, 76.755, -167.8014
27.200001, 76.802, -167.3190
27.600000, 76.843, -166.7505
28.000000, 76.821, -166.5063
28.500000, 76.694, -166.7162
29.000000, 76.539, -167.3723
29.500000, 76.470, -168.4319
30.000000, 76.496, -169.8363
30.400000, 76.516, -170.9521
30.700001, 76.499, -171.5667
31.100000, 76.436, -171.8861
31.500000, 76.377, -171.6542
32.000000, 76.404, -171.2069
32.500000, 76.551, -171.5265
33.000000, 76.691, -172.8606
33.500000, 76.686, -174.4117
34.000000, 76.517, -175.1079
34.500000, 76.292, -174.5096
35.000000, 76.165, -173.2614
35.500000, 76.197, -172.5315
36.000000, 76.329, -172.8983
36.500000, 76.473, -173.9986
37.000000, 76.580, -175.1467
37.500000, 76.631, -175.9446
38.200001, 76.589, -176.5048
38.700001, 76.489, -176.6899
39.500000, 76.325, -176.9511
40.000000, 76.265, -177.3714
40.599998, 76.186, -178.2224
41.200001, 76.051, -179.0023
41.799999, 75.931, -179.2673
42.500000, 75.940, -179.2829
43.099998, 76.020, -179.4926
43.700001, 76.068, -179.6878
44.400002, 76.100, -179.7279
45.000000, 76.135, 179.8870
45.500000, 76.119, 179.2157
46.200001, 75.973, 178.5361
46.799999, 75.810, 178.6547
47.500000, 75.684, 178.7903
48.200001, 75.598, 178.2323
48.700001, 75.568, 177.8502
49.400002, 75.639, 177.8847
50.000000, 75.760, 178.1243
50.799999, 75.785, 178.1276
51.500000, 75.677, 177.8909
52.200001, 75.594, 177.4468
53.000000, 75.520, 177.0586
53.799999, 75.390, 177.5122
54.500000, 75.318, 177.9089
55.200001, 75.336, 177.2119
56.000000, 75.392, 175.8348
57.000000, 75.420, 175.3665
58.000000, 75.335, 174.9999
59.000000, 75.238, 173.8333
60.000000, 75.290, 173.8635
60.799999, 75.286, 174.7854
61.500000, 75.196, 175.1958
62.200001, 75.118, 174.5984
63.000000, 75.120, 173.3025
64.000000, 75.175, 173.0446
65.000000, 75.180, 173.9479
66.000000, 75.128, 173.8732
67.000000, 75.065, 173.5335
68.000000, 75.008, 173.5967
69.000000, 74.887, 173.2097
70.000000, 74.790, 172.8947
71.000000, 74.790, 173.1588
72.000000, 74.748, 173.5916
73.000000, 74.673, 173.8284
74.000000, 74.659, 173.7927
75.000000, 74.690, 173.7380
76.199997, 74.667, 173.5075
77.500000, 74.507, 173.1186
78.800003, 74.423, 172.1736
80.000000, 74.394, 171.5547
81.199997, 74.366, 171.6978
82.500000, 74.270, 171.4807
83.800003, 74.170, 171.7443
85.000000, 74.113, 172.0325
86.199997, 74.091, 171.7546
87.500000, 74.109, 171.8995
88.500000, 74.081, 172.2877
90.000000, 73.985, 172.3223
91.199997, 73.986, 172.2358
92.500000, 73.968, 172.1977
93.800003, 73.846, 172.2951
95.000000, 73.735, 172.3870
96.199997, 73.640, 172.1286
97.500000, 73.606, 172.1404
98.800003, 73.634, 172.2635
100.000000, 73.644, 171.9037
101.500000, 73.604, 171.6203
103.000000, 73.512, 171.9903
104.400002, 73.442, 172.3622
106.000000, 73.387, 172.7427
107.500000, 73.308, 172.7983
109.000000, 73.235, 172.7727
110.599998, 73.178, 172.7627
112.000000, 73.118, 172.6526
113.800003, 73.042, 172.7674
115.000000, 73.010, 172.9791
117.199997, 72.965, 173.0544
118.000000, 72.945, 173.1122
120.599998, 72.851, 173.3552
122.000000, 72.808, 173.4958
124.099998, 72.747, 173.9022
125.000000, 72.708, 174.0804
126.500000, 72.642, 174.2876
128.000000, 72.608, 174.4372
131.500000, 72.576, 174.4452
132.000000, 72.568, 174.4817
134.000000, 72.488, 174.6987
136.000000, 72.399, 174.8729
138.000000, 72.354, 175.0688
140.000000, 72.304, 175.1737
143.000000, 72.201, 175.5398
145.000000, 72.157, 175.7109
147.500000, 72.096, 176.1142
150.000000, 72.026, 176.5538
152.500000, 71.980, 176.9734
155.000000, 71.916, 177.1899
157.500000, 71.861, 177.3029
160.000000, 71.818, 177.7520
162.500000, 71.768, 178.3574
165.000000, 71.702, 178.6422
167.500000, 71.647, 178.7543
170.000000, 71.601, 178.8890
172.500000, 71.548, 179.2271
175.000000, 71.486, 179.6318
177.500000, 71.429, 179.9852
180.000000, 71.387, -179.6795
182.500000, 71.348, -179.3617
185.000000, 71.299, -179.0280
187.500000, 71.256, -178.7434
190.000000, 71.232, -178.5078
192.500000, 71.204, -178.2366
195.000000, 71.170, -177.8752
197.500000, 71.139, -177.4778
200.000000, 71.102, -177.0437
203.000000, 71.053, -176.6471
206.000000, 70.992, -176.3301
209.000000, 70.950, -175.9267
212.000000, 70.917, -175.5190
214.000000, 70.890, -175.2106
218.000000, 70.823, -174.6501
220.000000, 70.793, -174.3648
224.000000, 70.741, -173.8118
227.000000, 70.701, -173.3777
230.000000, 70.667, -172.9513
233.000000, 70.633, -172.5366
236.000000, 70.602, -172.1627
240.000000, 70.566, -171.6513
243.000000, 70.534, -171.2415
247.000000, 70.481, -170.6732
250.000000, 70.446, -170.2072
254.000000, 70.413, -169.6332
258.000000, 70.385, -169.1174
262.000000, 70.346, -168.5973
265.000000, 70.312, -168.2083
269.000000, 70.276, -167.7146
272.000000, 70.252, -167.3649
276.000000, 70.218, -166.8049
280.000000, 70.188, -166.2369
285.000000, 70.154, -165.5940
290.000000, 70.126, -164.9145
295.000000, 70.083, -164.2132
300.000000, 70.029, -163.5187
304.000000, 69.997, -163.0012
307.000000, 69.979, -162.6356
311.000000, 69.959, -162.1307
315.000000, 69.933, -161.5689
320.000000, 69.899, -160.9082
325.000000, 69.873, -160.3108
330.000000, 69.848, -159.7109
335.000000, 69.827, -159.0683
340.000000, 69.807, -158.3773
345.000000, 69.779, -157.7581
350.000000, 69.740, -157.1233
355.000000, 69.703, -156.4614
360.000000, 69.671, -155.8363
365.000000, 69.648, -155.2208
370.000000, 69.630, -154.6390
375.000000, 69.613, -154.0682
382.000000, 69.586, -153.1841
387.000000, 69.566, -152.5756
395.000000, 69.547, -151.5807
400.000000, 69.530, -150.9879
406.000000, 69.508, -150.2390
412.000000, 69.493, -149.5010
418.000000, 69.474, -148.8387
425.000000, 69.447, -148.0080
431.000000, 69.434, -147.3023
437.000000, 69.432, -146.6250
444.000000, 69.413, -145.9062
450.000000, 69.392, -145.1632
455.000000, 69.374, -144.4808
462.000000, 69.352, -143.6417
468.000000, 69.340, -142.9449
475.000000, 69.325, -142.1015
482.000000, 69.310, -141.2755
487.000000, 69.301, -140.7397
494.000000, 69.296, -139.9951
500.000000, 69.291, -139.3428
508.000000, 69.282, -138.4525
515.000000, 69.271, -137.6402
522.000000, 69.254, -136.8358
530.000000, 69.243, -135.9316
538.000000, 69.230, -135.0114
545.000000, 69.214, -134.1784
552.000000, 69.198, -133.3431
560.000000, 69.187, -132.4948
570.000000, 69.189, -131.4532
580.000000, 69.197, -130.3269
590.000000, 69.199, -129.2132
600.000000, 69.189, -128.1011
608.000000, 69.186, -127.2390
615.000000, 69.181, -126.4698
622.000000, 69.173, -125.6539
630.000000, 69.167, -124.7232
640.000000, 69.171, -123.6571
650.000000, 69.175, -122.5465
660.000000, 69.176, -121.4870
670.000000, 69.171, -120.4092
680.000000, 69.171, -119.2820
690.000000, 69.185, -118.1863
700.000000, 69.208, -117.0845
710.000000, 69.228, -116.0209
720.000000, 69.240, -114.9333
730.000000, 69.257, -113.8396
740.000000, 69.274, -112.7114
750.000000, 69.290, -111.5464
762.000000, 69.314, -110.1975
775.000000, 69.340, -108.8227
788.000000, 69.368, -107.4100
800.000000, 69.409, -106.1019
812.000000, 69.452, -104.7253
825.000000, 69.495, -103.3333
838.000000, 69.544, -101.9562
850.000000, 69.600, -100.6327
862.000000, 69.658, -99.3399
875.000000, 69.719, -97.9875
885.000000, 69.770, -96.9568
900.000000, 69.852, -95.3948
912.000000, 69.922, -94.1993
925.000000, 69.996, -92.9999
938.000000, 70.073, -91.7830
950.000000, 70.158, -90.5891
962.000000, 70.237, -89.4151
975.000000, 70.315, -88.1925
988.000000, 70.404, -86.9491
1000.000000, 70.498, -85.8171
1015.000000, 70.623, -84.3569
1030.000000, 70.748, -82.9734
1044.000000, 70.879, -81.7810
1060.000000, 71.034, -80.5270
1075.000000, 71.179, -79.3481
1090.000000, 71.316, -78.2114
1106.000000, 71.462, -77.1687
1120.000000, 71.593, -76.3376
1138.000000, 71.760, -75.2818
1150.000000, 71.869, -74.5998
1172.000000, 72.067, -73.4055
1180.000000, 72.138, -72.9968
1206.000000, 72.359, -71.7192
1220.000000, 72.475, -71.0621
1241.000000, 72.636, -70.1645
1250.000000, 72.700, -69.8123
1265.000000, 72.804, -69.2001
1280.000000, 72.917, -68.5737
1315.000000, 73.178, -67.2868
1320.000000, 73.213, -67.1121
1340.000000, 73.350, -66.3999
1360.000000, 73.477, -65.6752
1380.000000, 73.598, -64.9719
1400.000000, 73.718, -64.2690
1430.000000, 73.896, -63.2117
1450.000000, 74.013, -62.5391
1475.000000, 74.157, -61.7383
1500.000000, 74.292, -60.9630
1525.000000, 74.429, -60.2145
1550.000000, 74.565, -59.4613
1575.000000, 74.698, -58.7285
1600.000000, 74.831, -58.0219
1625.000000, 74.959, -57.3165
1650.000000, 75.086, -56.6481
1675.000000, 75.211, -55.9942
1700.000000, 75.332, -55.3394
1725.000000, 75.456, -54.7050
1750.000000, 75.578, -54.0999
1775.000000, 75.696, -53.5066
1800.000000, 75.812, -52.9093
1825.000000, 75.932, -52.3541
1850.000000, 76.056, -51.8133
1875.000000, 76.175, -51.2769
1900.000000, 76.290, -50.7541
1925.000000, 76.410, -50.2512
1950.000000, 76.532, -49.7817
1975.000000, 76.652, -49.3598
2000.000000, 76.769, -48.9620
2030.000000, 76.905, -48.5252
2060.000000, 77.039, -48.1306
2090.000000, 77.173, -47.7760
2120.000000, 77.309, -47.4664
2140.000000, 77.399, -47.2709
2180.000000, 77.573, -46.9111
2200.000000, 77.657, -46.7664
2240.000000, 77.820, -46.5046
2270.000000, 77.939, -46.3682
2300.000000, 78.053, -46.2907
2330.000000, 78.164, -46.2620
2360.000000, 78.267, -46.2509
2400.000000, 78.394, -46.2500
2430.000000, 78.482, -46.2715
2470.000000, 78.590, -46.3671
2500.000000, 78.665, -46.4770
2540.000000, 78.762, -46.6503
2580.000000, 78.849, -46.8682
2620.000000, 78.922, -47.1132
2650.000000, 78.969, -47.2976
2690.000000, 79.022, -47.5330
2720.000000, 79.055, -47.7169
2760.000000, 79.092, -47.9563
2800.000000, 79.118, -48.2053
2850.000000, 79.137, -48.5396
2900.000000, 79.140, -48.8119
2950.000000, 79.131, -49.0205
3000.000000, 79.108, -49.1983
3040.000000, 79.088, -49.3100
3070.000000, 79.070, -49.3606
3110.000000, 79.041, -49.4084
3150.000000, 79.009, -49.4299
3200.000000, 78.969, -49.4014
3250.000000, 78.928, -49.3254
3300.000000, 78.892, -49.1877
3350.000000, 78.861, -49.0241
3400.000000, 78.832, -48.8945
3450.000000, 78.807, -48.7827
3500.000000, 78.781, -48.6746
3550.000000, 78.750, -48.5783
3600.000000, 78.721, -48.4857
3650.000000, 78.690, -48.3776
3700.000000, 78.659, -48.2665
3750.000000, 78.633, -48.1824
3820.000000, 78.606, -48.0904
3870.000000, 78.591, -48.0610
3950.000000, 78.567, -48.1249
4000.000000, 78.549, -48.2254
4060.000000, 78.527, -48.3853
4120.000000, 78.505, -48.6496
4180.000000, 78.478, -49.0330
4250.000000, 78.433, -49.5990
4310.000000, 78.385, -50.1812
4370.000000, 78.329, -50.8717
4440.000000, 78.243, -51.8227
4500.000000, 78.144, -52.7351
4550.000000, 78.039, -53.5303
4620.000000, 77.860, -54.6837
4680.000000, 77.680, -55.7149
4750.000000, 77.432, -56.9346
4820.000000, 77.138, -58.0642
4870.000000, 76.901, -58.7960
4940.000000, 76.536, -59.7339
5000.000000, 76.197, -60.3957
5080.000000, 75.709, -60.9511
5150.000000, 75.263, -61.1310
5220.000000, 74.813, -61.0185
5300.000000, 74.302, -60.5593
5380.000000, 73.806, -59.8812
5450.000000, 73.381, -59.1936
5520.000000, 72.959, -58.3529
5600.000000, 72.479, -57.2292
5700.000000, 71.878, -55.6298
5800.000000, 71.280, -53.7818
5900.000000, 70.698, -51.6248
6000.000000, 70.138, -49.2583
6080.000000, 69.699, -47.2308
6150.000000, 69.322, -45.3695
6220.000000, 68.953, -43.3772
6300.000000, 68.551, -40.9457
6400.000000, 68.073, -37.7062
6500.000000, 67.622, -34.2639
6600.000000, 67.209, -30.7002
6700.000000, 66.845, -26.9928
6800.000000, 66.506, -23.2484
6900.000000, 66.198, -19.5147
7000.000000, 65.924, -15.6550
7100.000000, 65.699, -11.8429
7200.000000, 65.515, -8.1981
7300.000000, 65.344, -4.6913
7400.000000, 65.181, -1.1747
7500.000000, 65.041, 2.3160
7620.000000, 64.906, 6.3801
7750.000000, 64.775, 10.7333
7880.000000, 64.664, 15.0775
8000.000000, 64.574, 19.0453
8120.000000, 64.503, 22.9350
8250.000000, 64.457, 27.1427
8380.000000, 64.448, 31.5052
8500.000000, 64.469, 35.6742
8620.000000, 64.528, 39.8438
8750.000000, 64.664, 44.4328
8850.000000, 64.814, 47.9729
9000.000000, 65.111, 53.0406
9120.000000, 65.411, 56.8462
9250.000000, 65.804, 60.7056
9380.000000, 66.266, 64.2613
9500.000000, 66.754, 67.2730
9620.000000, 67.298, 69.9228
9750.000000, 67.951, 72.3322
9880.000000, 68.670, 74.1433
10000.000000, 69.386, 75.0886
10150.000000, 70.349, 75.1392
10300.000000, 71.339, 73.6094
10440.000000, 72.207, 70.3891
10600.000000, 72.989, 64.6822
10750.000000, 73.374, 57.9453
10900.000000, 73.339, 50.9493
11060.000000, 72.867, 44.7283
11200.000000, 72.209, 41.3374
11380.000000, 71.292, 40.6049
11500.000000, 70.814, 42.2320
11720.000000, 70.549, 47.2873
11800.000000, 70.663, 48.9093
12060.000000, 71.387, 50.4799
12200.000000, 71.720, 49.3198
12410.000000, 71.990, 46.9992
12500.000000, 72.052, 46.2409
12650.000000, 72.164, 45.5149
12800.000000, 72.368, 45.3960
13150.000000, 73.623, 45.2104
13200.000000, 73.929, 44.8533
13400.000000, 75.520, 41.1313
13600.000000, 77.505, 30.9881
13800.000000, 79.050, 11.8634
14000.000000, 79.031, -13.3134
14300.000000, 75.664, -44.6005
14500.000000, 72.425, -55.0030
14750.000000, 68.651, -59.0172
15000.000000, 65.609, -57.8836
15250.000000, 63.190, -54.6349
15500.000000, 61.227, -50.3479
15750.000000, 59.576, -45.6462
16000.000000, 58.173, -40.8371
16250.000000, 56.951, -35.7551
16500.000000, 55.961, -30.8293
16750.000000, 55.158, -26.3196
17000.000000, 54.477, -22.1427
17250.000000, 53.833, -18.2642
17500.000000, 53.280, -14.6528
17750.000000, 52.789, -11.1164
18000.000000, 52.358, -7.6410
18250.000000, 52.019, -4.4789
18500.000000, 51.743, -2.0562
18750.000000, 51.414, -0.2892
19000.000000, 51.064, 1.2708
19250.000000, 50.700, 1.8082
19500.000000, 50.220, 1.4618
19750.000000, 49.600, 0.5125
20000.000000, 49.065, -0.9965
