* Measurement data measured by REW V5.31.3
* Source: Input device not selected, no input selected, L, volume: no control
* Format: 256k Log Swept Sine, 1 sweep at -12.0 dBFS with no timing reference
* Dated: Sep 6, 2024 4:25:48 PM
* REW Settings:
*  C-weighting compensation: Off
*  Target level: 75.0 dB
* Note: ; 
* Measurement: Hexa (Velvet Wide M) L
* Smoothing: 1/24 octave
* Frequency Step: 1/48 octave
* Start Frequency: 20.300 Hz
*
* Freq(Hz), SPL(dB), Phase(degrees)
20.299999, 78.998, 3.3323
20.600000, 78.948, 2.4860
20.900000, 78.881, 1.5626
21.200001, 78.812, 0.7282
21.400000, 78.774, 0.2709
21.799999, 78.731, -0.3647
22.000000, 78.730, -0.5678
22.400000, 78.760, -0.9014
22.700001, 78.789, -1.2320
23.000000, 78.801, -1.7119
23.299999, 78.779, -2.3258
23.600000, 78.723, -2.9839
24.000000, 78.623, -3.7156
24.299999, 78.566, -4.0434
24.700001, 78.557, -4.2020
25.000000, 78.604, -4.2374
25.400000, 78.689, -4.3713
25.799999, 78.719, -4.6471
26.200001, 78.632, -4.8851
26.500000, 78.492, -4.8862
26.900000, 78.264, -4.5795
27.200001, 78.117, -4.2355
27.600000, 78.011, -3.9974
28.000000, 78.009, -4.3813
28.500000, 78.059, -5.7670
29.000000, 78.057, -7.4999
29.500000, 77.979, -8.8319
30.000000, 77.886, -9.6098
30.400000, 77.840, -10.0720
30.700001, 77.826, -10.4414
31.100000, 77.825, -10.9421
31.500000, 77.833, -11.2756
32.000000, 77.861, -11.1569
32.500000, 77.917, -10.4331
33.000000, 77.983, -9.5059
33.500000, 78.015, -8.8510
34.000000, 77.971, -8.6725
34.500000, 77.848, -8.8769
35.000000, 77.672, -9.2210
35.500000, 77.486, -9.4833
36.000000, 77.335, -9.6068
36.500000, 77.260, -9.7777
37.000000, 77.276, -10.3054
37.500000, 77.353, -11.3192
38.200001, 77.474, -12.9518
38.700001, 77.541, -13.4995
39.500000, 77.663, -12.7078
40.000000, 77.744, -11.7531
40.599998, 77.765, -11.0024
41.200001, 77.636, -10.9909
41.799999, 77.384, -11.5831
42.500000, 77.063, -12.4953
43.099998, 76.891, -12.7957
43.700001, 76.891, -12.4294
44.400002, 77.040, -12.0693
45.000000, 77.090, -12.6056
45.500000, 76.990, -13.4702
46.200001, 76.761, -14.4908
46.799999, 76.697, -15.0525
47.500000, 76.769, -15.7186
48.200001, 76.762, -15.7824
48.700001, 76.705, -15.0418
49.400002, 76.695, -13.8079
50.000000, 76.735, -13.7687
50.799999, 76.646, -14.4872
51.500000, 76.492, -13.9740
52.200001, 76.444, -12.7976
53.000000, 76.421, -12.6517
53.799999, 76.306, -13.4272
54.500000, 76.254, -13.8814
55.200001, 76.278, -14.0624
56.000000, 76.291, -13.9663
57.000000, 76.266, -13.7820
58.000000, 76.195, -14.4328
59.000000, 76.078, -14.8247
60.000000, 76.056, -14.3027
60.799999, 76.040, -14.1069
61.500000, 75.933, -14.2650
62.200001, 75.782, -14.3632
63.000000, 75.698, -14.3606
64.000000, 75.706, -14.7405
65.000000, 75.625, -15.0559
66.000000, 75.491, -14.8027
67.000000, 75.380, -14.0961
68.000000, 75.336, -13.2174
69.000000, 75.336, -13.1185
70.000000, 75.338, -13.7519
71.000000, 75.341, -14.4285
72.000000, 75.322, -14.6000
73.000000, 75.290, -14.1489
74.000000, 75.248, -13.4705
75.000000, 75.196, -13.2967
76.199997, 75.109, -13.7514
77.500000, 75.058, -14.0335
78.800003, 74.995, -13.8241
80.000000, 74.966, -13.0907
81.199997, 74.931, -13.0427
82.500000, 74.855, -13.3631
83.800003, 74.811, -13.3607
85.000000, 74.764, -13.0003
86.199997, 74.715, -12.8358
87.500000, 74.625, -12.8121
88.500000, 74.588, -12.6949
90.000000, 74.538, -12.7328
91.199997, 74.438, -12.8356
92.500000, 74.358, -12.6459
93.800003, 74.311, -12.2176
95.000000, 74.266, -12.1823
96.199997, 74.230, -12.0783
97.500000, 74.191, -11.7583
98.800003, 74.137, -11.5864
100.000000, 74.089, -11.3618
101.500000, 74.024, -11.1399
103.000000, 73.975, -11.0720
104.400002, 73.927, -11.0897
106.000000, 73.875, -11.0843
107.500000, 73.847, -10.7084
109.000000, 73.838, -10.3632
110.599998, 73.785, -10.0862
112.000000, 73.726, -9.8163
113.800003, 73.661, -9.4681
115.000000, 73.620, -9.2779
117.199997, 73.587, -9.0943
118.000000, 73.589, -9.0888
120.599998, 73.523, -8.7256
122.000000, 73.454, -8.4070
124.099998, 73.386, -7.8363
125.000000, 73.368, -7.7559
126.500000, 73.343, -7.6202
128.000000, 73.308, -7.3060
131.500000, 73.188, -6.8514
132.000000, 73.177, -6.7923
134.000000, 73.142, -6.4542
136.000000, 73.113, -6.1852
138.000000, 73.089, -5.8571
140.000000, 73.047, -5.4258
143.000000, 72.980, -5.0587
145.000000, 72.935, -4.8028
147.500000, 72.877, -4.5358
150.000000, 72.847, -4.0459
152.500000, 72.829, -3.6280
155.000000, 72.788, -3.2519
157.500000, 72.731, -3.0358
160.000000, 72.685, -2.7137
162.500000, 72.644, -2.3619
165.000000, 72.600, -2.0194
167.500000, 72.570, -1.6558
170.000000, 72.547, -1.2717
172.500000, 72.507, -0.7831
175.000000, 72.480, -0.3490
177.500000, 72.447, -0.1582
180.000000, 72.400, 0.1242
182.500000, 72.382, 0.4765
185.000000, 72.362, 0.8467
187.500000, 72.332, 1.2199
190.000000, 72.296, 1.5842
192.500000, 72.264, 1.9490
195.000000, 72.245, 2.3609
197.500000, 72.223, 2.7431
200.000000, 72.187, 3.0193
203.000000, 72.147, 3.3443
206.000000, 72.117, 3.7090
209.000000, 72.087, 4.1352
212.000000, 72.053, 4.6605
214.000000, 72.033, 4.9635
218.000000, 72.005, 5.4921
220.000000, 71.996, 5.7919
224.000000, 71.966, 6.2881
227.000000, 71.927, 6.6090
230.000000, 71.894, 6.9860
233.000000, 71.885, 7.3832
236.000000, 71.873, 7.8513
240.000000, 71.832, 8.3655
243.000000, 71.803, 8.7059
247.000000, 71.767, 9.1890
250.000000, 71.737, 9.5603
254.000000, 71.705, 9.9807
258.000000, 71.682, 10.4168
262.000000, 71.662, 10.9628
265.000000, 71.647, 11.3328
269.000000, 71.622, 11.7865
272.000000, 71.605, 12.2081
276.000000, 71.577, 12.7292
280.000000, 71.543, 13.2010
285.000000, 71.523, 13.8174
290.000000, 71.502, 14.3607
295.000000, 71.470, 14.9840
300.000000, 71.444, 15.5973
304.000000, 71.423, 16.0335
307.000000, 71.405, 16.2875
311.000000, 71.378, 16.6342
315.000000, 71.362, 17.1173
320.000000, 71.347, 17.7271
325.000000, 71.324, 18.3150
330.000000, 71.301, 18.8707
335.000000, 71.281, 19.3903
340.000000, 71.265, 19.9363
345.000000, 71.253, 20.4743
350.000000, 71.236, 20.9393
355.000000, 71.218, 21.5109
360.000000, 71.195, 22.1149
365.000000, 71.178, 22.6424
370.000000, 71.167, 23.1781
375.000000, 71.154, 23.7086
382.000000, 71.136, 24.4811
387.000000, 71.119, 25.0205
395.000000, 71.103, 25.8760
400.000000, 71.086, 26.3512
406.000000, 71.058, 26.9257
412.000000, 71.037, 27.5112
418.000000, 71.021, 28.0740
425.000000, 71.003, 28.8384
431.000000, 70.980, 29.5017
437.000000, 70.947, 30.1536
444.000000, 70.915, 30.9066
450.000000, 70.903, 31.4465
455.000000, 70.896, 31.8957
462.000000, 70.885, 32.6709
468.000000, 70.876, 33.2566
475.000000, 70.859, 33.8721
482.000000, 70.840, 34.5308
487.000000, 70.826, 35.0331
494.000000, 70.805, 35.7657
500.000000, 70.778, 36.3344
508.000000, 70.749, 37.1508
515.000000, 70.729, 37.8862
522.000000, 70.714, 38.6273
530.000000, 70.700, 39.3730
538.000000, 70.688, 40.1113
545.000000, 70.675, 40.8406
552.000000, 70.655, 41.5206
560.000000, 70.627, 42.2637
570.000000, 70.609, 43.2066
580.000000, 70.601, 44.2207
590.000000, 70.586, 45.1987
600.000000, 70.570, 46.1586
608.000000, 70.559, 46.9354
615.000000, 70.550, 47.5782
622.000000, 70.542, 48.2520
630.000000, 70.536, 49.0830
640.000000, 70.520, 50.1186
650.000000, 70.496, 51.1347
660.000000, 70.484, 52.1589
670.000000, 70.483, 53.1958
680.000000, 70.489, 54.2305
690.000000, 70.485, 55.2053
700.000000, 70.471, 56.1035
710.000000, 70.470, 57.0697
720.000000, 70.473, 58.0723
730.000000, 70.471, 59.1563
740.000000, 70.468, 60.2278
750.000000, 70.460, 61.2904
762.000000, 70.471, 62.5132
775.000000, 70.497, 63.7993
788.000000, 70.500, 65.0370
800.000000, 70.502, 66.3074
812.000000, 70.508, 67.5783
825.000000, 70.524, 68.9388
838.000000, 70.562, 70.2808
850.000000, 70.603, 71.4883
862.000000, 70.635, 72.7010
875.000000, 70.675, 74.0621
885.000000, 70.716, 75.1198
900.000000, 70.790, 76.5819
912.000000, 70.845, 77.7469
925.000000, 70.907, 79.0224
938.000000, 70.971, 80.2706
950.000000, 71.031, 81.3896
962.000000, 71.099, 82.4701
975.000000, 71.185, 83.6960
988.000000, 71.271, 85.0009
1000.000000, 71.352, 86.1232
1015.000000, 71.458, 87.2196
1030.000000, 71.570, 88.2978
1044.000000, 71.674, 89.3790
1060.000000, 71.789, 90.5473
1075.000000, 71.895, 91.5820
1090.000000, 72.001, 92.5500
1106.000000, 72.122, 93.5244
1120.000000, 72.227, 94.3537
1138.000000, 72.357, 95.3250
1150.000000, 72.443, 95.8962
1172.000000, 72.600, 96.9293
1180.000000, 72.656, 97.3328
1206.000000, 72.827, 98.4856
1220.000000, 72.911, 99.0764
1241.000000, 73.031, 99.9487
1250.000000, 73.082, 100.3176
1265.000000, 73.164, 100.9125
1280.000000, 73.240, 101.4468
1315.000000, 73.402, 102.6330
1320.000000, 73.422, 102.8122
1340.000000, 73.499, 103.4928
1360.000000, 73.579, 104.2127
1380.000000, 73.650, 104.9388
1400.000000, 73.715, 105.6278
1430.000000, 73.823, 106.6779
1450.000000, 73.893, 107.4059
1475.000000, 73.966, 108.3732
1500.000000, 74.038, 109.2949
1525.000000, 74.110, 110.1603
1550.000000, 74.177, 111.0689
1575.000000, 74.243, 112.0496
1600.000000, 74.307, 112.9974
1625.000000, 74.374, 113.9590
1650.000000, 74.446, 114.9307
1675.000000, 74.517, 115.9081
1700.000000, 74.586, 116.8814
1725.000000, 74.659, 117.8295
1750.000000, 74.734, 118.7530
1775.000000, 74.810, 119.7285
1800.000000, 74.889, 120.7400
1825.000000, 74.966, 121.6971
1850.000000, 75.044, 122.6252
1875.000000, 75.132, 123.5618
1900.000000, 75.226, 124.5193
1925.000000, 75.318, 125.4263
1950.000000, 75.408, 126.2786
1975.000000, 75.505, 127.1154
2000.000000, 75.604, 127.9606
2030.000000, 75.726, 129.0134
2060.000000, 75.852, 130.0121
2090.000000, 75.976, 130.9861
2120.000000, 76.106, 131.9113
2140.000000, 76.197, 132.4846
2180.000000, 76.388, 133.5661
2200.000000, 76.485, 134.1099
2240.000000, 76.676, 135.1453
2270.000000, 76.821, 135.8549
2300.000000, 76.974, 136.5049
2330.000000, 77.127, 137.0974
2360.000000, 77.281, 137.6481
2400.000000, 77.492, 138.3113
2430.000000, 77.652, 138.7393
2470.000000, 77.867, 139.1943
2500.000000, 78.027, 139.4575
2540.000000, 78.242, 139.7307
2580.000000, 78.458, 139.8783
2620.000000, 78.669, 139.8426
2650.000000, 78.822, 139.7227
2690.000000, 79.020, 139.4066
2720.000000, 79.163, 139.0771
2760.000000, 79.340, 138.5185
2800.000000, 79.499, 137.7825
2850.000000, 79.669, 136.6769
2900.000000, 79.801, 135.4198
2950.000000, 79.887, 134.0242
3000.000000, 79.924, 132.5547
3040.000000, 79.917, 131.3717
3070.000000, 79.895, 130.5031
3110.000000, 79.843, 129.3874
3150.000000, 79.765, 128.3327
3200.000000, 79.640, 127.1096
3250.000000, 79.488, 125.9977
3300.000000, 79.310, 124.9612
3350.000000, 79.105, 124.0674
3400.000000, 78.881, 123.2780
3450.000000, 78.639, 122.6510
3500.000000, 78.376, 122.2173
3550.000000, 78.098, 121.9678
3600.000000, 77.808, 121.8943
3650.000000, 77.516, 121.9994
3700.000000, 77.225, 122.3225
3750.000000, 76.935, 122.8530
3820.000000, 76.532, 123.8398
3870.000000, 76.251, 124.7165
3950.000000, 75.825, 126.4012
4000.000000, 75.577, 127.6153
4060.000000, 75.301, 129.1983
4120.000000, 75.048, 130.8676
4180.000000, 74.822, 132.6545
4250.000000, 74.587, 134.8286
4310.000000, 74.412, 136.7255
4370.000000, 74.258, 138.5832
4440.000000, 74.094, 140.7109
4500.000000, 73.976, 142.4944
4550.000000, 73.889, 143.9544
4620.000000, 73.771, 145.9417
4680.000000, 73.674, 147.5581
4750.000000, 73.570, 149.3786
4820.000000, 73.470, 151.1220
4870.000000, 73.397, 152.3548
4940.000000, 73.293, 154.1231
5000.000000, 73.207, 155.5971
5080.000000, 73.087, 157.5417
5150.000000, 72.972, 159.3183
5220.000000, 72.869, 161.1653
5300.000000, 72.758, 163.2492
5380.000000, 72.651, 165.3503
5450.000000, 72.561, 167.2722
5520.000000, 72.480, 169.1833
5600.000000, 72.397, 171.4330
5700.000000, 72.311, 174.2957
5800.000000, 72.247, 177.1593
5900.000000, 72.203, -179.9176
6000.000000, 72.186, -176.9822
6080.000000, 72.186, -174.6211
6150.000000, 72.198, -172.5738
6220.000000, 72.224, -170.5504
6300.000000, 72.271, -168.2286
6400.000000, 72.345, -165.4048
6500.000000, 72.445, -162.6432
6600.000000, 72.583, -159.8399
6700.000000, 72.753, -157.0598
6800.000000, 72.945, -154.3818
6900.000000, 73.171, -151.8122
7000.000000, 73.436, -149.3687
7100.000000, 73.742, -147.0188
7200.000000, 74.100, -144.8581
7300.000000, 74.506, -142.9293
7400.000000, 74.965, -141.2564
7500.000000, 75.487, -139.8650
7620.000000, 76.203, -138.7455
7750.000000, 77.087, -138.5375
7880.000000, 78.078, -139.7223
8000.000000, 79.069, -142.5380
8120.000000, 80.055, -147.6030
8250.000000, 80.948, -155.9917
8380.000000, 81.413, -166.9608
8500.000000, 81.296, -178.1105
8620.000000, 80.643, 171.4265
8750.000000, 79.482, 162.3654
8850.000000, 78.412, 157.3871
9000.000000, 76.740, 152.9163
9120.000000, 75.458, 151.3936
9250.000000, 74.180, 151.1950
9380.000000, 73.031, 152.1051
9500.000000, 72.082, 153.5924
9620.000000, 71.238, 155.5339
9750.000000, 70.428, 157.9750
9880.000000, 69.707, 160.6655
10000.000000, 69.112, 163.2509
10150.000000, 68.476, 166.5365
10300.000000, 67.942, 169.8839
10440.000000, 67.511, 172.8767
10600.000000, 67.081, 176.0618
10750.000000, 66.739, 178.8863
10900.000000, 66.457, -178.3456
11060.000000, 66.206, -175.7166
11200.000000, 66.006, -173.7406
11380.000000, 65.736, -171.4429
11500.000000, 65.549, -170.1016
11720.000000, 65.188, -167.8344
11800.000000, 65.049, -167.0048
12060.000000, 64.592, -164.2831
12200.000000, 64.327, -162.6945
12410.000000, 63.889, -159.9431
12500.000000, 63.699, -158.7277
12650.000000, 63.416, -156.5204
12800.000000, 63.188, -153.9807
13150.000000, 62.887, -148.0994
13200.000000, 62.867, -147.3490
13400.000000, 62.812, -144.5609
13600.000000, 62.792, -141.9466
13800.000000, 62.788, -139.7198
14000.000000, 62.752, -137.8886
14300.000000, 62.668, -134.1923
14500.000000, 62.786, -130.6768
14750.000000, 63.222, -126.9705
15000.000000, 63.820, -124.6841
15250.000000, 64.561, -123.3957
15500.000000, 65.510, -123.2025
15750.000000, 66.702, -124.7468
16000.000000, 68.151, -129.2175
16250.000000, 69.688, -138.2672
16500.000000, 70.817, -153.0417
16750.000000, 70.870, -171.5105
17000.000000, 69.571, 172.0251
17250.000000, 67.493, 163.6830
17500.000000, 66.118, 163.3445
17750.000000, 65.950, 158.5360
18000.000000, 65.122, 148.4478
18250.000000, 63.576, 141.8262
18500.000000, 62.095, 137.7715
18750.000000, 60.685, 133.9711
19000.000000, 59.164, 130.9278
19250.000000, 57.487, 129.1389
19500.000000, 55.741, 128.8817
19750.000000, 54.129, 130.0975
20000.000000, 53.075, 131.4439
