* Measurement data measured by REW V5.31.3
* Source: Input device not selected, no input selected, L, volume: no control
* Format: 256k Log Swept Sine, 1 sweep at -12.0 dBFS with no timing reference
* Dated: Aug 30, 2024 12:54:19 PM
* REW Settings:
*  C-weighting compensation: Off
*  Target level: 75.0 dB
* Note: ; 
* Measurement: Hexa (Black Foam) L
* Smoothing: 1/24 octave
* Frequency Step: 1/48 octave
* Start Frequency: 20.300 Hz
*
* Freq(Hz), SPL(dB), Phase(degrees)
20.299999, 78.279, 2.1790
20.600000, 78.033, 1.1865
20.900000, 77.816, -0.4114
21.200001, 77.694, -2.3294
21.400000, 77.672, -3.6071
21.799999, 77.743, -5.7493
22.000000, 77.815, -6.4984
22.400000, 77.972, -7.2985
22.700001, 78.065, -7.4018
23.000000, 78.117, -7.2564
23.299999, 78.122, -7.0340
23.600000, 78.084, -6.8789
24.000000, 77.990, -6.9323
24.299999, 77.910, -7.1993
24.700001, 77.819, -7.7903
25.000000, 77.776, -8.3179
25.400000, 77.751, -8.9938
25.799999, 77.747, -9.5397
26.200001, 77.742, -9.9354
26.500000, 77.728, -10.1632
26.900000, 77.693, -10.4375
27.200001, 77.659, -10.6589
27.600000, 77.613, -11.0035
28.000000, 77.577, -11.3959
28.500000, 77.542, -11.8891
29.000000, 77.509, -12.3108
29.500000, 77.463, -12.6572
30.000000, 77.407, -13.0072
30.400000, 77.363, -13.3452
30.700001, 77.335, -13.6374
31.100000, 77.306, -14.0481
31.500000, 77.284, -14.4288
32.000000, 77.259, -14.7945
32.500000, 77.225, -15.0440
33.000000, 77.178, -15.2687
33.500000, 77.124, -15.5616
34.000000, 77.073, -15.9332
34.500000, 77.034, -16.3120
35.000000, 77.004, -16.6208
35.500000, 76.974, -16.8515
36.000000, 76.934, -17.0633
36.500000, 76.883, -17.3213
37.000000, 76.831, -17.6389
37.500000, 76.788, -17.9713
38.200001, 76.746, -18.3592
38.700001, 76.717, -18.5683
39.500000, 76.649, -18.8985
40.000000, 76.601, -19.1608
40.599998, 76.555, -19.5086
41.200001, 76.521, -19.8016
41.799999, 76.487, -19.9894
42.500000, 76.430, -20.1635
43.099998, 76.370, -20.3894
43.700001, 76.318, -20.6881
44.400002, 76.277, -21.0044
45.000000, 76.249, -21.1939
45.500000, 76.214, -21.3321
46.200001, 76.145, -21.5653
46.799999, 76.086, -21.7842
47.500000, 76.042, -21.9734
48.200001, 76.018, -22.0713
48.700001, 75.994, -22.1416
49.400002, 75.941, -22.3407
50.000000, 75.890, -22.6220
50.799999, 75.838, -23.0049
51.500000, 75.800, -23.2050
52.200001, 75.750, -23.3172
53.000000, 75.681, -23.4998
53.799999, 75.627, -23.7494
54.500000, 75.597, -23.9196
55.200001, 75.563, -24.0289
56.000000, 75.504, -24.1996
57.000000, 75.428, -24.5565
58.000000, 75.368, -24.7731
59.000000, 75.308, -24.7740
60.000000, 75.247, -24.8711
60.799999, 75.208, -25.0370
61.500000, 75.175, -25.1846
62.200001, 75.134, -25.3165
63.000000, 75.083, -25.4521
64.000000, 75.033, -25.6224
65.000000, 74.982, -25.7779
66.000000, 74.921, -25.9067
67.000000, 74.865, -26.0028
68.000000, 74.813, -26.0588
69.000000, 74.763, -26.1992
70.000000, 74.715, -26.3854
71.000000, 74.670, -26.4805
72.000000, 74.621, -26.5511
73.000000, 74.574, -26.6311
74.000000, 74.532, -26.7025
75.000000, 74.482, -26.8118
76.199997, 74.423, -26.9902
77.500000, 74.366, -27.0781
78.800003, 74.304, -27.1337
80.000000, 74.252, -27.2327
81.199997, 74.196, -27.2602
82.500000, 74.143, -27.3257
83.800003, 74.096, -27.4055
85.000000, 74.039, -27.4719
86.199997, 73.987, -27.5672
87.500000, 73.941, -27.6207
88.500000, 73.903, -27.6600
90.000000, 73.848, -27.6877
91.199997, 73.803, -27.6730
92.500000, 73.755, -27.7303
93.800003, 73.709, -27.8133
95.000000, 73.666, -27.8384
96.199997, 73.632, -27.8181
97.500000, 73.588, -27.8079
98.800003, 73.533, -27.9112
100.000000, 73.487, -28.0043
101.500000, 73.440, -27.9568
103.000000, 73.403, -27.9465
104.400002, 73.375, -27.9747
106.000000, 73.339, -27.9500
107.500000, 73.295, -27.9480
109.000000, 73.246, -27.9527
110.599998, 73.191, -27.9655
112.000000, 73.148, -27.9868
113.800003, 73.103, -27.9965
115.000000, 73.067, -28.0064
117.199997, 73.000, -27.9780
118.000000, 72.982, -27.9768
120.599998, 72.925, -28.0070
122.000000, 72.895, -28.0170
124.099998, 72.853, -27.9748
125.000000, 72.834, -27.9412
126.500000, 72.800, -27.8858
128.000000, 72.760, -27.8471
131.500000, 72.681, -27.7802
132.000000, 72.669, -27.7838
134.000000, 72.626, -27.8583
136.000000, 72.593, -27.8550
138.000000, 72.560, -27.7772
140.000000, 72.517, -27.7803
143.000000, 72.459, -27.7951
145.000000, 72.434, -27.7658
147.500000, 72.394, -27.6717
150.000000, 72.346, -27.5943
152.500000, 72.300, -27.5924
155.000000, 72.257, -27.5546
157.500000, 72.218, -27.5291
160.000000, 72.181, -27.5020
162.500000, 72.149, -27.4251
165.000000, 72.111, -27.3884
167.500000, 72.076, -27.3475
170.000000, 72.043, -27.3365
172.500000, 72.003, -27.3271
175.000000, 71.970, -27.2651
177.500000, 71.945, -27.2037
180.000000, 71.916, -27.1324
182.500000, 71.879, -27.0991
185.000000, 71.847, -27.0702
187.500000, 71.819, -27.0162
190.000000, 71.797, -26.9989
192.500000, 71.777, -26.9441
195.000000, 71.749, -26.9062
197.500000, 71.716, -26.8652
200.000000, 71.686, -26.8480
203.000000, 71.664, -26.8680
206.000000, 71.646, -26.8451
209.000000, 71.619, -26.8069
212.000000, 71.592, -26.7447
214.000000, 71.578, -26.7363
218.000000, 71.541, -26.6625
220.000000, 71.520, -26.6213
224.000000, 71.482, -26.6075
227.000000, 71.459, -26.5960
230.000000, 71.443, -26.5501
233.000000, 71.427, -26.5143
236.000000, 71.405, -26.4703
240.000000, 71.366, -26.4382
243.000000, 71.342, -26.4090
247.000000, 71.317, -26.3419
250.000000, 71.299, -26.3212
254.000000, 71.276, -26.2961
258.000000, 71.253, -26.2489
262.000000, 71.231, -26.2230
265.000000, 71.211, -26.1873
269.000000, 71.185, -26.1244
272.000000, 71.165, -26.0599
276.000000, 71.140, -25.9988
280.000000, 71.118, -26.0126
285.000000, 71.103, -26.0548
290.000000, 71.078, -26.0349
295.000000, 71.049, -25.9687
300.000000, 71.022, -25.9058
304.000000, 71.003, -25.8883
307.000000, 70.990, -25.8616
311.000000, 70.977, -25.8171
315.000000, 70.964, -25.8027
320.000000, 70.941, -25.7897
325.000000, 70.919, -25.7832
330.000000, 70.901, -25.7949
335.000000, 70.883, -25.7662
340.000000, 70.863, -25.7241
345.000000, 70.838, -25.6877
350.000000, 70.822, -25.6392
355.000000, 70.809, -25.5630
360.000000, 70.787, -25.5386
365.000000, 70.762, -25.5433
370.000000, 70.741, -25.5275
375.000000, 70.729, -25.4896
382.000000, 70.711, -25.4867
387.000000, 70.691, -25.4380
395.000000, 70.667, -25.3654
400.000000, 70.650, -25.3440
406.000000, 70.635, -25.2840
412.000000, 70.617, -25.2487
418.000000, 70.601, -25.2398
425.000000, 70.587, -25.2401
431.000000, 70.569, -25.1986
437.000000, 70.550, -25.1291
444.000000, 70.531, -25.0492
450.000000, 70.513, -24.9612
455.000000, 70.498, -24.9225
462.000000, 70.480, -24.9340
468.000000, 70.465, -24.8883
475.000000, 70.448, -24.7983
482.000000, 70.431, -24.7582
487.000000, 70.420, -24.7486
494.000000, 70.402, -24.6997
500.000000, 70.387, -24.5901
508.000000, 70.366, -24.4712
515.000000, 70.352, -24.4193
522.000000, 70.342, -24.3682
530.000000, 70.327, -24.2857
538.000000, 70.310, -24.1951
545.000000, 70.297, -24.0929
552.000000, 70.286, -23.9894
560.000000, 70.276, -23.8826
570.000000, 70.258, -23.7237
580.000000, 70.233, -23.5985
590.000000, 70.208, -23.4972
600.000000, 70.199, -23.3760
608.000000, 70.193, -23.2487
615.000000, 70.183, -23.1096
622.000000, 70.169, -22.9697
630.000000, 70.156, -22.7912
640.000000, 70.151, -22.6474
650.000000, 70.142, -22.4377
660.000000, 70.128, -22.1993
670.000000, 70.112, -22.0348
680.000000, 70.104, -21.8441
690.000000, 70.099, -21.5927
700.000000, 70.097, -21.3192
710.000000, 70.096, -21.0866
720.000000, 70.097, -20.8314
730.000000, 70.099, -20.5008
740.000000, 70.101, -20.2296
750.000000, 70.104, -19.9729
762.000000, 70.113, -19.6292
775.000000, 70.129, -19.2389
788.000000, 70.142, -18.8707
800.000000, 70.156, -18.4359
812.000000, 70.180, -18.0046
825.000000, 70.216, -17.5421
838.000000, 70.252, -17.1440
850.000000, 70.280, -16.7874
862.000000, 70.317, -16.3864
875.000000, 70.368, -15.9801
885.000000, 70.409, -15.6512
900.000000, 70.477, -15.1143
912.000000, 70.536, -14.7188
925.000000, 70.600, -14.2928
938.000000, 70.673, -13.8822
950.000000, 70.747, -13.5315
962.000000, 70.823, -13.1987
975.000000, 70.910, -12.8821
988.000000, 71.003, -12.5992
1000.000000, 71.089, -12.3482
1015.000000, 71.191, -12.1060
1030.000000, 71.306, -11.8921
1044.000000, 71.423, -11.7165
1060.000000, 71.552, -11.5976
1075.000000, 71.671, -11.5342
1090.000000, 71.790, -11.5078
1106.000000, 71.919, -11.4939
1120.000000, 72.032, -11.5446
1138.000000, 72.173, -11.6926
1150.000000, 72.264, -11.8011
1172.000000, 72.429, -12.0804
1180.000000, 72.486, -12.2053
1206.000000, 72.661, -12.6219
1220.000000, 72.751, -12.8515
1241.000000, 72.875, -13.2593
1250.000000, 72.925, -13.4399
1265.000000, 73.004, -13.7445
1280.000000, 73.082, -14.0460
1315.000000, 73.248, -14.7777
1320.000000, 73.270, -14.8784
1340.000000, 73.357, -15.2796
1360.000000, 73.439, -15.6886
1380.000000, 73.518, -16.0890
1400.000000, 73.590, -16.4428
1430.000000, 73.692, -16.9495
1450.000000, 73.760, -17.2946
1475.000000, 73.843, -17.6844
1500.000000, 73.924, -18.0399
1525.000000, 74.003, -18.3857
1550.000000, 74.078, -18.7097
1575.000000, 74.147, -19.0073
1600.000000, 74.219, -19.2817
1625.000000, 74.298, -19.5441
1650.000000, 74.376, -19.7700
1675.000000, 74.453, -20.0043
1700.000000, 74.529, -20.2622
1725.000000, 74.608, -20.4736
1750.000000, 74.692, -20.6537
1775.000000, 74.775, -20.8119
1800.000000, 74.860, -20.9792
1825.000000, 74.950, -21.1426
1850.000000, 75.041, -21.3152
1875.000000, 75.134, -21.4887
1900.000000, 75.229, -21.6496
1925.000000, 75.324, -21.8178
1950.000000, 75.423, -21.9910
1975.000000, 75.524, -22.1486
2000.000000, 75.627, -22.2991
2030.000000, 75.759, -22.5496
2060.000000, 75.893, -22.8284
2090.000000, 76.033, -23.1069
2120.000000, 76.174, -23.3874
2140.000000, 76.269, -23.6019
2180.000000, 76.462, -24.0510
2200.000000, 76.561, -24.2892
2240.000000, 76.766, -24.8095
2270.000000, 76.923, -25.2352
2300.000000, 77.083, -25.6988
2330.000000, 77.245, -26.1989
2360.000000, 77.408, -26.7548
2400.000000, 77.627, -27.5761
2430.000000, 77.791, -28.2542
2470.000000, 78.014, -29.2434
2500.000000, 78.182, -30.0516
2540.000000, 78.404, -31.2057
2580.000000, 78.625, -32.4668
2620.000000, 78.840, -33.8579
2650.000000, 78.997, -34.9917
2690.000000, 79.197, -36.6162
2720.000000, 79.339, -37.9203
2760.000000, 79.515, -39.7842
2800.000000, 79.673, -41.7581
2850.000000, 79.836, -44.3782
2900.000000, 79.956, -47.1604
2950.000000, 80.029, -50.0220
3000.000000, 80.052, -52.9112
3040.000000, 80.038, -55.1533
3070.000000, 80.007, -56.7854
3110.000000, 79.944, -58.8911
3150.000000, 79.862, -60.9086
3200.000000, 79.735, -63.2977
3250.000000, 79.584, -65.5691
3300.000000, 79.412, -67.6972
3350.000000, 79.216, -69.6893
3400.000000, 79.001, -71.5333
3450.000000, 78.764, -73.1751
3500.000000, 78.507, -74.6235
3550.000000, 78.240, -75.8919
3600.000000, 77.966, -76.9544
3650.000000, 77.687, -77.7935
3700.000000, 77.409, -78.4209
3750.000000, 77.134, -78.8488
3820.000000, 76.760, -79.1527
3870.000000, 76.506, -79.1788
3950.000000, 76.121, -78.9209
4000.000000, 75.896, -78.5842
4060.000000, 75.644, -78.0297
4120.000000, 75.415, -77.3801
4180.000000, 75.207, -76.6060
4250.000000, 74.990, -75.5707
4310.000000, 74.830, -74.6371
4370.000000, 74.693, -73.6856
4440.000000, 74.556, -72.5874
4500.000000, 74.459, -71.6716
4550.000000, 74.388, -70.9186
4620.000000, 74.296, -69.9272
4680.000000, 74.226, -69.1281
4750.000000, 74.147, -68.2202
4820.000000, 74.070, -67.3530
4870.000000, 74.015, -66.7352
4940.000000, 73.937, -65.8603
5000.000000, 73.868, -65.1264
5080.000000, 73.768, -64.1466
5150.000000, 73.676, -63.2144
5220.000000, 73.587, -62.2052
5300.000000, 73.486, -60.9943
5380.000000, 73.390, -59.7325
5450.000000, 73.308, -58.5598
5520.000000, 73.230, -57.3332
5600.000000, 73.150, -55.8835
5700.000000, 73.056, -53.9272
5800.000000, 72.975, -51.9047
5900.000000, 72.911, -49.8158
6000.000000, 72.864, -47.6072
6080.000000, 72.832, -45.8114
6150.000000, 72.809, -44.2194
6220.000000, 72.796, -42.6051
6300.000000, 72.797, -40.7156
6400.000000, 72.812, -38.3006
6500.000000, 72.845, -35.8261
6600.000000, 72.899, -33.3444
6700.000000, 72.968, -30.8587
6800.000000, 73.054, -28.3709
6900.000000, 73.170, -25.8735
7000.000000, 73.311, -23.3595
7100.000000, 73.481, -20.8415
7200.000000, 73.682, -18.3665
7300.000000, 73.916, -16.0166
7400.000000, 74.176, -13.7780
7500.000000, 74.464, -11.6701
7620.000000, 74.857, -9.3888
7750.000000, 75.330, -7.3102
7880.000000, 75.845, -5.6344
8000.000000, 76.370, -4.6152
8120.000000, 76.927, -4.3197
8250.000000, 77.531, -4.9601
8380.000000, 78.092, -6.7149
8500.000000, 78.520, -9.3467
8620.000000, 78.808, -12.7915
8750.000000, 78.907, -17.0914
8850.000000, 78.818, -20.4917
9000.000000, 78.429, -25.0503
9120.000000, 77.938, -27.8129
9250.000000, 77.286, -29.6595
9380.000000, 76.579, -30.2611
9500.000000, 75.929, -29.8214
9620.000000, 75.308, -28.5695
9750.000000, 74.692, -26.4436
9880.000000, 74.145, -23.6858
10000.000000, 73.709, -20.7349
10150.000000, 73.259, -16.7110
10300.000000, 72.913, -12.4532
10440.000000, 72.678, -8.4002
10600.000000, 72.503, -3.7872
10750.000000, 72.414, 0.3773
10900.000000, 72.389, 4.2576
11060.000000, 72.422, 7.9598
11200.000000, 72.472, 10.7631
11380.000000, 72.522, 13.8494
11500.000000, 72.536, 15.7127
11720.000000, 72.507, 18.8432
11800.000000, 72.479, 19.9317
12060.000000, 72.330, 23.5023
12200.000000, 72.222, 25.5416
12410.000000, 72.050, 28.8067
12500.000000, 71.981, 30.2829
12650.000000, 71.887, 32.8129
12800.000000, 71.832, 35.2439
13150.000000, 71.771, 39.4180
13200.000000, 71.753, 39.8293
13400.000000, 71.630, 41.0738
13600.000000, 71.401, 41.7702
13800.000000, 71.023, 42.1016
14000.000000, 70.448, 42.4699
14300.000000, 69.285, 44.9708
14500.000000, 68.495, 48.0893
14750.000000, 67.566, 52.4582
15000.000000, 66.628, 57.2683
15250.000000, 65.661, 62.7591
15500.000000, 64.706, 68.9597
15750.000000, 63.773, 75.8572
16000.000000, 62.855, 83.4109
16250.000000, 61.956, 91.8588
16500.000000, 61.080, 101.2874
16750.000000, 60.240, 112.0176
17000.000000, 59.511, 125.2008
17250.000000, 59.315, 142.8491
17500.000000, 60.496, 161.0974
17750.000000, 62.155, 166.8413
18000.000000, 62.694, 165.9496
18250.000000, 62.642, 168.2547
18500.000000, 62.689, 171.9146
18750.000000, 62.750, 174.2303
19000.000000, 62.668, 175.4014
19250.000000, 62.430, 175.4703
19500.000000, 62.022, 173.7328
19750.000000, 61.393, 169.8676
20000.000000, 60.816, 165.6449
