* Measurement data measured by REW V5.31.3
* Source: Input device not selected, no input selected, L, volume: no control
* Format: 256k Log Swept Sine, 1 sweep at -12.0 dBFS with no timing reference
* Dated: Aug 30, 2024 12:34:28 PM
* REW Settings:
*  C-weighting compensation: Off
*  Target level: 75.0 dB
* Note: ; 
* Measurement: Hexa (Beige Foam) L
* Smoothing: 1/24 octave
* Frequency Step: 1/48 octave
* Start Frequency: 20.300 Hz
*
* Freq(Hz), SPL(dB), Phase(degrees)
20.299999, 78.317, -3.6554
20.600000, 78.281, -4.0252
20.900000, 78.247, -4.3793
21.200001, 78.223, -4.7113
21.400000, 78.214, -4.9372
21.799999, 78.202, -5.4325
22.000000, 78.193, -5.7050
22.400000, 78.159, -6.2752
22.700001, 78.116, -6.6905
23.000000, 78.061, -7.0689
23.299999, 78.004, -7.4059
23.600000, 77.955, -7.7189
24.000000, 77.912, -8.1533
24.299999, 77.899, -8.5251
24.700001, 77.897, -9.0862
25.000000, 77.897, -9.5230
25.400000, 77.888, -10.0533
25.799999, 77.863, -10.4662
26.200001, 77.828, -10.7688
26.500000, 77.799, -10.9700
26.900000, 77.761, -11.2830
27.200001, 77.732, -11.5839
27.600000, 77.694, -12.0606
28.000000, 77.654, -12.5464
28.500000, 77.611, -13.0251
29.000000, 77.585, -13.3167
29.500000, 77.573, -13.5492
30.000000, 77.552, -13.8862
30.400000, 77.515, -14.2557
30.700001, 77.475, -14.5591
31.100000, 77.413, -14.9446
31.500000, 77.355, -15.2715
32.000000, 77.303, -15.6093
32.500000, 77.269, -15.9258
33.000000, 77.235, -16.2481
33.500000, 77.191, -16.5555
34.000000, 77.143, -16.8417
34.500000, 77.100, -17.1422
35.000000, 77.063, -17.4847
35.500000, 77.025, -17.8394
36.000000, 76.981, -18.1457
36.500000, 76.937, -18.3802
37.000000, 76.896, -18.5805
37.500000, 76.858, -18.8041
38.200001, 76.805, -19.1934
38.700001, 76.762, -19.4934
39.500000, 76.689, -19.9339
40.000000, 76.646, -20.1761
40.599998, 76.599, -20.4478
41.200001, 76.554, -20.7065
41.799999, 76.510, -20.9452
42.500000, 76.455, -21.1984
43.099998, 76.405, -21.4147
43.700001, 76.355, -21.6447
44.400002, 76.299, -21.9194
45.000000, 76.255, -22.1460
45.500000, 76.220, -22.3229
46.200001, 76.172, -22.5377
46.799999, 76.133, -22.6873
47.500000, 76.091, -22.8713
48.200001, 76.046, -23.1270
48.700001, 76.006, -23.3338
49.400002, 75.944, -23.5780
50.000000, 75.896, -23.7207
50.799999, 75.843, -23.8805
51.500000, 75.795, -24.0386
52.200001, 75.746, -24.2286
53.000000, 75.696, -24.5044
53.799999, 75.645, -24.7671
54.500000, 75.599, -24.8951
55.200001, 75.554, -24.9736
56.000000, 75.501, -25.1162
57.000000, 75.437, -25.3316
58.000000, 75.383, -25.4981
59.000000, 75.326, -25.6977
60.000000, 75.263, -25.9153
60.799999, 75.218, -26.0572
61.500000, 75.181, -26.1719
62.200001, 75.138, -26.2878
63.000000, 75.086, -26.4036
64.000000, 75.028, -26.5171
65.000000, 74.975, -26.6339
66.000000, 74.921, -26.7791
67.000000, 74.862, -26.9180
68.000000, 74.800, -26.9669
69.000000, 74.749, -27.0481
70.000000, 74.702, -27.2008
71.000000, 74.658, -27.2797
72.000000, 74.613, -27.3332
73.000000, 74.562, -27.4367
74.000000, 74.510, -27.5651
75.000000, 74.456, -27.6671
76.199997, 74.398, -27.7776
77.500000, 74.340, -27.8572
78.800003, 74.277, -27.8450
80.000000, 74.218, -27.8679
81.199997, 74.162, -28.0018
82.500000, 74.100, -28.1435
83.800003, 74.048, -28.2199
85.000000, 74.006, -28.2345
86.199997, 73.962, -28.2370
87.500000, 73.909, -28.2753
88.500000, 73.870, -28.3119
90.000000, 73.813, -28.3199
91.199997, 73.760, -28.3722
92.500000, 73.699, -28.4283
93.800003, 73.640, -28.4576
95.000000, 73.591, -28.4971
96.199997, 73.567, -28.5195
97.500000, 73.546, -28.5324
98.800003, 73.510, -28.5063
100.000000, 73.470, -28.4669
101.500000, 73.408, -28.4556
103.000000, 73.350, -28.4953
104.400002, 73.306, -28.5290
106.000000, 73.255, -28.5230
107.500000, 73.206, -28.5103
109.000000, 73.164, -28.5010
110.599998, 73.121, -28.5627
112.000000, 73.077, -28.5580
113.800003, 73.031, -28.4770
115.000000, 73.008, -28.4620
117.199997, 72.959, -28.5606
118.000000, 72.938, -28.5895
120.599998, 72.863, -28.5401
122.000000, 72.832, -28.4852
124.099998, 72.786, -28.4205
125.000000, 72.761, -28.4046
126.500000, 72.719, -28.3940
128.000000, 72.684, -28.4270
131.500000, 72.618, -28.3379
132.000000, 72.605, -28.3088
134.000000, 72.555, -28.2648
136.000000, 72.521, -28.2474
138.000000, 72.489, -28.2551
140.000000, 72.448, -28.2562
143.000000, 72.382, -28.1716
145.000000, 72.352, -28.1016
147.500000, 72.313, -28.0917
150.000000, 72.276, -28.0588
152.500000, 72.234, -27.9940
155.000000, 72.185, -27.8870
157.500000, 72.145, -27.8117
160.000000, 72.113, -27.7496
162.500000, 72.074, -27.7370
165.000000, 72.038, -27.7390
167.500000, 72.007, -27.7170
170.000000, 71.970, -27.6658
172.500000, 71.933, -27.5836
175.000000, 71.901, -27.5841
177.500000, 71.875, -27.5406
180.000000, 71.847, -27.4648
182.500000, 71.813, -27.4264
185.000000, 71.784, -27.3909
187.500000, 71.765, -27.3473
190.000000, 71.740, -27.3036
192.500000, 71.706, -27.2323
195.000000, 71.677, -27.2116
197.500000, 71.656, -27.1780
200.000000, 71.635, -27.1428
203.000000, 71.604, -27.1008
206.000000, 71.577, -27.0143
209.000000, 71.550, -26.9735
212.000000, 71.522, -26.9577
214.000000, 71.503, -26.9465
218.000000, 71.469, -26.8834
220.000000, 71.455, -26.8560
224.000000, 71.424, -26.7893
227.000000, 71.398, -26.7092
230.000000, 71.373, -26.6671
233.000000, 71.347, -26.6891
236.000000, 71.324, -26.7078
240.000000, 71.301, -26.6074
243.000000, 71.289, -26.5539
247.000000, 71.270, -26.5061
250.000000, 71.246, -26.4379
254.000000, 71.215, -26.4251
258.000000, 71.189, -26.3824
262.000000, 71.168, -26.3172
265.000000, 71.150, -26.2972
269.000000, 71.128, -26.2861
272.000000, 71.114, -26.2627
276.000000, 71.091, -26.2076
280.000000, 71.066, -26.1726
285.000000, 71.042, -26.1469
290.000000, 71.017, -26.0721
295.000000, 70.992, -25.9701
300.000000, 70.970, -25.9421
304.000000, 70.950, -25.9319
307.000000, 70.938, -25.9493
311.000000, 70.923, -25.9658
315.000000, 70.907, -25.9413
320.000000, 70.888, -25.8776
325.000000, 70.869, -25.8082
330.000000, 70.845, -25.8358
335.000000, 70.822, -25.7876
340.000000, 70.803, -25.6804
345.000000, 70.783, -25.6332
350.000000, 70.764, -25.6237
355.000000, 70.745, -25.5963
360.000000, 70.731, -25.5402
365.000000, 70.716, -25.5669
370.000000, 70.705, -25.5595
375.000000, 70.689, -25.4919
382.000000, 70.661, -25.4381
387.000000, 70.644, -25.4344
395.000000, 70.625, -25.3715
400.000000, 70.611, -25.3408
406.000000, 70.594, -25.3179
412.000000, 70.579, -25.2571
418.000000, 70.565, -25.2606
425.000000, 70.542, -25.2596
431.000000, 70.517, -25.1719
437.000000, 70.500, -25.0732
444.000000, 70.484, -24.9754
450.000000, 70.477, -24.9588
455.000000, 70.472, -24.9353
462.000000, 70.455, -24.8694
468.000000, 70.440, -24.8401
475.000000, 70.420, -24.8262
482.000000, 70.402, -24.8202
487.000000, 70.395, -24.7759
494.000000, 70.381, -24.6683
500.000000, 70.366, -24.6105
508.000000, 70.348, -24.5152
515.000000, 70.333, -24.4386
522.000000, 70.319, -24.4091
530.000000, 70.302, -24.3487
538.000000, 70.285, -24.2333
545.000000, 70.272, -24.1157
552.000000, 70.261, -24.0435
560.000000, 70.250, -23.9664
570.000000, 70.240, -23.8251
580.000000, 70.221, -23.7175
590.000000, 70.202, -23.5364
600.000000, 70.187, -23.4078
608.000000, 70.175, -23.2569
615.000000, 70.164, -23.1060
622.000000, 70.158, -22.9906
630.000000, 70.151, -22.8891
640.000000, 70.142, -22.7089
650.000000, 70.133, -22.4834
660.000000, 70.125, -22.3024
670.000000, 70.118, -22.1028
680.000000, 70.115, -21.8685
690.000000, 70.110, -21.6804
700.000000, 70.106, -21.5274
710.000000, 70.106, -21.2678
720.000000, 70.104, -20.9724
730.000000, 70.103, -20.7167
740.000000, 70.113, -20.4484
750.000000, 70.123, -20.1710
762.000000, 70.126, -19.8870
775.000000, 70.139, -19.5085
788.000000, 70.152, -19.1052
800.000000, 70.163, -18.7503
812.000000, 70.180, -18.4044
825.000000, 70.208, -17.9993
838.000000, 70.245, -17.5682
850.000000, 70.286, -17.2069
862.000000, 70.322, -16.7906
875.000000, 70.362, -16.3481
885.000000, 70.403, -16.0066
900.000000, 70.471, -15.5219
912.000000, 70.526, -15.1861
925.000000, 70.590, -14.8099
938.000000, 70.663, -14.4380
950.000000, 70.737, -14.1088
962.000000, 70.809, -13.8303
975.000000, 70.889, -13.5430
988.000000, 70.975, -13.1991
1000.000000, 71.054, -12.8638
1015.000000, 71.169, -12.6652
1030.000000, 71.285, -12.4846
1044.000000, 71.390, -12.3105
1060.000000, 71.513, -12.1827
1075.000000, 71.629, -12.1023
1090.000000, 71.744, -12.0534
1106.000000, 71.869, -12.0544
1120.000000, 71.977, -12.1226
1138.000000, 72.115, -12.2437
1150.000000, 72.204, -12.3641
1172.000000, 72.363, -12.5885
1180.000000, 72.417, -12.6678
1206.000000, 72.591, -13.0269
1220.000000, 72.681, -13.2429
1241.000000, 72.805, -13.6080
1250.000000, 72.857, -13.7863
1265.000000, 72.943, -14.0928
1280.000000, 73.027, -14.3827
1315.000000, 73.200, -15.0427
1320.000000, 73.223, -15.1457
1340.000000, 73.309, -15.5567
1360.000000, 73.392, -15.9676
1380.000000, 73.472, -16.3369
1400.000000, 73.546, -16.7201
1430.000000, 73.655, -17.2339
1450.000000, 73.725, -17.5511
1475.000000, 73.806, -17.9429
1500.000000, 73.882, -18.2799
1525.000000, 73.960, -18.6548
1550.000000, 74.039, -18.9707
1575.000000, 74.117, -19.2623
1600.000000, 74.193, -19.5463
1625.000000, 74.272, -19.8159
1650.000000, 74.352, -20.0776
1675.000000, 74.431, -20.3238
1700.000000, 74.510, -20.5465
1725.000000, 74.593, -20.7346
1750.000000, 74.676, -20.9308
1775.000000, 74.759, -21.1143
1800.000000, 74.848, -21.3101
1825.000000, 74.937, -21.4861
1850.000000, 75.029, -21.6544
1875.000000, 75.124, -21.8250
1900.000000, 75.223, -21.9978
1925.000000, 75.321, -22.1891
1950.000000, 75.420, -22.3945
1975.000000, 75.525, -22.6032
2000.000000, 75.634, -22.8163
2030.000000, 75.762, -23.0150
2060.000000, 75.894, -23.2742
2090.000000, 76.035, -23.5681
2120.000000, 76.177, -23.8643
2140.000000, 76.273, -24.0835
2180.000000, 76.470, -24.5518
2200.000000, 76.571, -24.7915
2240.000000, 76.777, -25.3338
2270.000000, 76.934, -25.7961
2300.000000, 77.093, -26.2728
2330.000000, 77.257, -26.7775
2360.000000, 77.423, -27.3377
2400.000000, 77.644, -28.1845
2430.000000, 77.812, -28.8836
2470.000000, 78.037, -29.8907
2500.000000, 78.205, -30.7086
2540.000000, 78.429, -31.8856
2580.000000, 78.650, -33.1772
2620.000000, 78.868, -34.5938
2650.000000, 79.027, -35.7550
2690.000000, 79.229, -37.4138
2720.000000, 79.371, -38.7446
2760.000000, 79.545, -40.6334
2800.000000, 79.701, -42.6380
2850.000000, 79.866, -45.3163
2900.000000, 79.986, -48.1208
2950.000000, 80.054, -50.9888
3000.000000, 80.072, -53.8486
3040.000000, 80.056, -56.1117
3070.000000, 80.027, -57.7648
3110.000000, 79.967, -59.8762
3150.000000, 79.887, -61.8785
3200.000000, 79.766, -64.2743
3250.000000, 79.620, -66.5492
3300.000000, 79.448, -68.6932
3350.000000, 79.257, -70.6832
3400.000000, 79.048, -72.5253
3450.000000, 78.819, -74.2097
3500.000000, 78.572, -75.7075
3550.000000, 78.312, -77.0129
3600.000000, 78.043, -78.1069
3650.000000, 77.769, -78.9885
3700.000000, 77.494, -79.6767
3750.000000, 77.222, -80.1843
3820.000000, 76.850, -80.5890
3870.000000, 76.594, -80.6622
3950.000000, 76.210, -80.4995
4000.000000, 75.984, -80.2296
4060.000000, 75.728, -79.7451
4120.000000, 75.499, -79.1181
4180.000000, 75.293, -78.3767
4250.000000, 75.079, -77.3946
4310.000000, 74.921, -76.5032
4370.000000, 74.788, -75.5878
4440.000000, 74.657, -74.5410
4500.000000, 74.564, -73.6679
4550.000000, 74.496, -72.9670
4620.000000, 74.411, -72.0321
4680.000000, 74.347, -71.2630
4750.000000, 74.282, -70.4301
4820.000000, 74.216, -69.6316
4870.000000, 74.167, -69.0964
4940.000000, 74.094, -68.3913
5000.000000, 74.031, -67.7573
5080.000000, 73.945, -66.8626
5150.000000, 73.864, -66.0791
5220.000000, 73.781, -65.2729
5300.000000, 73.688, -64.2747
5380.000000, 73.594, -63.2128
5450.000000, 73.507, -62.2266
5520.000000, 73.423, -61.2003
5600.000000, 73.333, -59.9748
5700.000000, 73.233, -58.2901
5800.000000, 73.145, -56.5179
5900.000000, 73.063, -54.6771
6000.000000, 72.994, -52.7435
6080.000000, 72.950, -51.1585
6150.000000, 72.922, -49.7520
6220.000000, 72.900, -48.2935
6300.000000, 72.882, -46.5899
6400.000000, 72.873, -44.4392
6500.000000, 72.879, -42.2164
6600.000000, 72.904, -39.9645
6700.000000, 72.951, -37.7159
6800.000000, 73.018, -35.4416
6900.000000, 73.102, -33.1765
7000.000000, 73.206, -30.9006
7100.000000, 73.336, -28.6121
7200.000000, 73.497, -26.3932
7300.000000, 73.684, -24.2845
7400.000000, 73.894, -22.2993
7500.000000, 74.127, -20.4514
7620.000000, 74.443, -18.4735
7750.000000, 74.822, -16.6961
7880.000000, 75.226, -15.3402
8000.000000, 75.627, -14.5055
8120.000000, 76.039, -14.2309
8250.000000, 76.471, -14.6946
8380.000000, 76.852, -15.9653
8500.000000, 77.124, -17.7990
8620.000000, 77.289, -20.1256
8750.000000, 77.318, -22.9442
8850.000000, 77.227, -25.0977
9000.000000, 76.920, -27.9573
9120.000000, 76.546, -29.6764
9250.000000, 76.058, -30.7586
9380.000000, 75.519, -30.9733
9500.000000, 75.011, -30.4291
9620.000000, 74.522, -29.2448
9750.000000, 74.028, -27.3447
9880.000000, 73.581, -24.9150
10000.000000, 73.223, -22.3162
10150.000000, 72.859, -18.7491
10300.000000, 72.584, -15.0108
10440.000000, 72.401, -11.4997
10600.000000, 72.269, -7.5489
10750.000000, 72.213, -4.0293
10900.000000, 72.211, -0.7819
11060.000000, 72.252, 2.2624
11200.000000, 72.297, 4.4760
11380.000000, 72.326, 6.7930
11500.000000, 72.309, 8.1038
11720.000000, 72.199, 10.3026
11800.000000, 72.137, 11.1038
12060.000000, 71.849, 13.8898
12200.000000, 71.653, 15.5641
12410.000000, 71.333, 18.4481
12500.000000, 71.197, 19.8358
12650.000000, 70.981, 22.3131
12800.000000, 70.789, 24.8376
13150.000000, 70.419, 30.0689
13200.000000, 70.360, 30.7285
13400.000000, 70.092, 33.2211
13600.000000, 69.766, 35.5004
13800.000000, 69.376, 37.6390
14000.000000, 68.880, 39.8485
14300.000000, 67.946, 44.6754
14500.000000, 67.369, 49.1393
14750.000000, 66.781, 54.8536
15000.000000, 66.248, 60.2513
15250.000000, 65.708, 65.7716
15500.000000, 65.162, 71.4527
15750.000000, 64.597, 77.3400
16000.000000, 64.022, 83.4541
16250.000000, 63.437, 89.9195
16500.000000, 62.823, 97.0846
16750.000000, 62.173, 105.3149
17000.000000, 61.556, 115.8344
17250.000000, 61.467, 131.2795
17500.000000, 62.827, 147.4789
17750.000000, 64.620, 150.4013
18000.000000, 65.161, 146.3114
18250.000000, 65.017, 145.3065
18500.000000, 64.921, 145.7798
18750.000000, 64.794, 144.9559
19000.000000, 64.394, 142.6386
19250.000000, 63.599, 139.4181
19500.000000, 62.368, 135.9869
19750.000000, 60.791, 133.2448
20000.000000, 59.520, 131.9611
