* Measurement data measured by REW V5.31.3
* Source: Input device not selected, no input selected, L, volume: no control
* Format: 256k Log Swept Sine, 1 sweep at -12.0 dBFS with no timing reference
* Dated: Nov 23, 2024 12:28:19 AM
* REW Settings:
*  C-weighting compensation: Off
*  Target level: 75.0 dB
* Note: ; 
* Measurement: L+R Nov 23
* Smoothing: 1/24 octave
* Frequency Step: 1/48 octave
* Start Frequency: 20.300 Hz
*
* Freq(Hz), SPL(dB), Phase(degrees)
20.299999, 83.733, -154.2611
20.600000, 83.744, -154.5507
20.900000, 83.770, -154.8029
21.200001, 83.809, -155.0329
21.400000, 83.839, -155.2068
21.799999, 83.886, -155.6450
22.000000, 83.895, -155.8965
22.400000, 83.880, -156.3753
22.700001, 83.849, -156.6437
23.000000, 83.820, -156.8138
23.299999, 83.808, -156.9271
23.600000, 83.823, -157.0627
24.000000, 83.877, -157.3949
24.299999, 83.927, -157.7799
24.700001, 83.979, -158.3915
25.000000, 84.001, -158.8331
25.400000, 84.011, -159.3040
25.799999, 84.012, -159.6372
26.200001, 84.014, -159.9190
26.500000, 84.018, -160.1520
26.900000, 84.020, -160.5114
27.200001, 84.019, -160.7928
27.600000, 84.016, -161.1314
28.000000, 84.019, -161.3981
28.500000, 84.036, -161.6681
29.000000, 84.062, -161.9617
29.500000, 84.080, -162.3227
30.000000, 84.084, -162.7133
30.400000, 84.082, -163.0079
30.700001, 84.080, -163.2069
31.100000, 84.078, -163.4411
31.500000, 84.078, -163.6468
32.000000, 84.080, -163.8876
32.500000, 84.082, -164.1494
33.000000, 84.085, -164.4670
33.500000, 84.091, -164.8375
34.000000, 84.098, -165.2137
34.500000, 84.107, -165.5337
35.000000, 84.113, -165.7639
35.500000, 84.114, -165.9203
36.000000, 84.109, -166.0604
36.500000, 84.103, -166.2540
37.000000, 84.099, -166.5421
37.500000, 84.098, -166.9078
38.200001, 84.103, -167.4283
38.700001, 84.106, -167.7279
39.500000, 84.096, -168.0277
40.000000, 84.080, -168.1025
40.599998, 84.067, -168.1037
41.200001, 84.075, -168.1105
41.799999, 84.098, -168.2544
42.500000, 84.112, -168.6013
43.099998, 84.100, -168.9112
43.700001, 84.083, -169.1413
44.400002, 84.078, -169.3651
45.000000, 84.080, -169.5775
45.500000, 84.077, -169.7631
46.200001, 84.061, -170.0187
46.799999, 84.042, -170.2431
47.500000, 84.021, -170.4908
48.200001, 84.008, -170.6574
48.700001, 84.005, -170.7216
49.400002, 84.005, -170.8045
50.000000, 84.005, -170.9353
50.799999, 84.001, -171.1982
51.500000, 83.998, -171.4205
52.200001, 83.992, -171.5601
53.000000, 83.977, -171.6466
53.799999, 83.962, -171.7762
54.500000, 83.956, -171.9669
55.200001, 83.951, -172.1572
56.000000, 83.941, -172.2938
57.000000, 83.920, -172.4514
58.000000, 83.907, -172.6724
59.000000, 83.919, -172.8036
60.000000, 83.908, -172.8496
60.799999, 83.867, -172.9252
61.500000, 83.829, -173.0941
62.200001, 83.804, -173.3470
63.000000, 83.789, -173.6012
64.000000, 83.780, -173.7166
65.000000, 83.777, -173.7343
66.000000, 83.770, -173.8366
67.000000, 83.752, -173.9523
68.000000, 83.732, -174.0077
69.000000, 83.713, -174.0991
70.000000, 83.688, -174.2386
71.000000, 83.668, -174.3417
72.000000, 83.660, -174.4137
73.000000, 83.654, -174.5277
74.000000, 83.638, -174.6291
75.000000, 83.620, -174.6307
76.199997, 83.599, -174.5953
77.500000, 83.571, -174.7018
78.800003, 83.529, -174.8356
80.000000, 83.504, -174.8375
81.199997, 83.498, -174.8885
82.500000, 83.486, -174.9711
83.800003, 83.467, -175.0891
85.000000, 83.444, -175.1288
86.199997, 83.420, -175.0783
87.500000, 83.395, -175.0799
88.500000, 83.382, -175.0641
90.000000, 83.362, -175.0767
91.199997, 83.344, -175.1029
92.500000, 83.326, -175.1034
93.800003, 83.301, -175.1478
95.000000, 83.280, -175.1919
96.199997, 83.266, -175.1323
97.500000, 83.253, -175.0490
98.800003, 83.241, -175.0107
100.000000, 83.234, -174.9845
101.500000, 83.221, -174.8804
103.000000, 83.209, -174.7704
104.400002, 83.199, -174.7303
106.000000, 83.180, -174.7048
107.500000, 83.164, -174.6871
109.000000, 83.153, -174.6015
110.599998, 83.143, -174.5452
112.000000, 83.141, -174.5478
113.800003, 83.133, -174.5057
115.000000, 83.126, -174.4499
117.199997, 83.118, -174.3755
118.000000, 83.116, -174.3300
120.599998, 83.111, -174.2221
122.000000, 83.121, -174.1997
124.099998, 83.140, -174.2088
125.000000, 83.145, -174.2144
126.500000, 83.150, -174.2305
128.000000, 83.157, -174.2706
131.500000, 83.160, -174.4705
132.000000, 83.159, -174.4914
134.000000, 83.153, -174.5667
136.000000, 83.152, -174.6657
138.000000, 83.154, -174.8143
140.000000, 83.151, -175.0186
143.000000, 83.140, -175.3966
145.000000, 83.127, -175.6997
147.500000, 83.106, -176.0164
150.000000, 83.064, -176.2796
152.500000, 83.014, -176.5855
155.000000, 82.961, -176.8352
157.500000, 82.889, -177.0678
160.000000, 82.813, -177.2565
162.500000, 82.739, -177.4078
165.000000, 82.657, -177.5491
167.500000, 82.577, -177.5567
170.000000, 82.504, -177.3884
172.500000, 82.424, -177.2335
175.000000, 82.333, -177.1969
177.500000, 82.248, -177.0907
180.000000, 82.173, -176.9689
182.500000, 82.108, -176.7751
185.000000, 82.046, -176.5065
187.500000, 81.981, -176.2068
190.000000, 81.918, -175.9232
192.500000, 81.858, -175.6266
195.000000, 81.798, -175.3259
197.500000, 81.740, -175.0134
200.000000, 81.684, -174.6692
203.000000, 81.622, -174.2186
206.000000, 81.568, -173.7816
209.000000, 81.524, -173.4117
212.000000, 81.472, -172.9970
214.000000, 81.438, -172.6828
218.000000, 81.378, -172.0752
220.000000, 81.352, -171.7949
224.000000, 81.295, -171.2876
227.000000, 81.254, -170.8195
230.000000, 81.236, -170.3295
233.000000, 81.223, -169.8614
236.000000, 81.205, -169.4048
240.000000, 81.176, -168.8490
243.000000, 81.152, -168.4403
247.000000, 81.127, -167.8784
250.000000, 81.115, -167.4722
254.000000, 81.107, -166.9004
258.000000, 81.102, -166.3198
262.000000, 81.094, -165.7719
265.000000, 81.084, -165.3621
269.000000, 81.077, -164.7721
272.000000, 81.082, -164.3369
276.000000, 81.098, -163.7661
280.000000, 81.131, -163.2084
285.000000, 81.181, -162.6308
290.000000, 81.230, -162.2006
295.000000, 81.280, -161.9034
300.000000, 81.315, -161.6534
304.000000, 81.336, -161.4622
307.000000, 81.352, -161.3185
311.000000, 81.372, -161.1543
315.000000, 81.388, -161.0141
320.000000, 81.404, -160.8641
325.000000, 81.419, -160.7799
330.000000, 81.435, -160.7381
335.000000, 81.447, -160.6998
340.000000, 81.449, -160.6839
345.000000, 81.442, -160.7267
350.000000, 81.425, -160.7859
355.000000, 81.406, -160.8206
360.000000, 81.383, -160.8799
365.000000, 81.351, -160.9534
370.000000, 81.314, -160.9993
375.000000, 81.272, -161.0328
382.000000, 81.205, -161.0879
387.000000, 81.149, -161.1361
395.000000, 81.048, -161.1097
400.000000, 80.977, -161.0363
406.000000, 80.887, -160.8946
412.000000, 80.792, -160.7268
418.000000, 80.694, -160.5566
425.000000, 80.584, -160.2673
431.000000, 80.488, -159.9487
437.000000, 80.388, -159.5969
444.000000, 80.271, -159.1391
450.000000, 80.173, -158.7055
455.000000, 80.092, -158.3186
462.000000, 79.985, -157.7617
468.000000, 79.892, -157.2494
475.000000, 79.780, -156.5812
482.000000, 79.675, -155.8818
487.000000, 79.603, -155.3673
494.000000, 79.504, -154.6175
500.000000, 79.427, -153.9465
508.000000, 79.326, -153.0475
515.000000, 79.242, -152.2874
522.000000, 79.160, -151.4857
530.000000, 79.072, -150.5111
538.000000, 78.988, -149.5255
545.000000, 78.917, -148.6618
552.000000, 78.848, -147.8140
560.000000, 78.773, -146.8323
570.000000, 78.689, -145.5704
580.000000, 78.614, -144.3205
590.000000, 78.544, -143.0470
600.000000, 78.471, -141.7531
608.000000, 78.415, -140.7186
615.000000, 78.375, -139.8343
622.000000, 78.341, -138.9459
630.000000, 78.299, -137.9029
640.000000, 78.243, -136.5761
650.000000, 78.196, -135.2854
660.000000, 78.155, -134.0017
670.000000, 78.117, -132.7105
680.000000, 78.082, -131.3821
690.000000, 78.051, -130.0744
700.000000, 78.026, -128.7896
710.000000, 78.002, -127.5006
720.000000, 77.981, -126.1768
730.000000, 77.962, -124.8477
740.000000, 77.949, -123.5287
750.000000, 77.939, -122.2399
762.000000, 77.940, -120.6839
775.000000, 77.946, -119.0035
788.000000, 77.957, -117.3417
800.000000, 77.970, -115.7885
812.000000, 77.988, -114.2193
825.000000, 78.016, -112.5810
838.000000, 78.057, -110.9612
850.000000, 78.095, -109.4832
862.000000, 78.136, -107.9981
875.000000, 78.191, -106.3722
885.000000, 78.236, -105.1507
900.000000, 78.311, -103.3852
912.000000, 78.378, -102.0187
925.000000, 78.459, -100.5435
938.000000, 78.540, -99.0679
950.000000, 78.620, -97.7532
962.000000, 78.706, -96.4857
975.000000, 78.802, -95.1514
988.000000, 78.901, -93.8412
1000.000000, 78.997, -92.6547
1015.000000, 79.130, -91.2744
1030.000000, 79.261, -89.9427
1044.000000, 79.380, -88.7677
1060.000000, 79.518, -87.4781
1075.000000, 79.653, -86.3364
1090.000000, 79.788, -85.2772
1106.000000, 79.929, -84.2056
1120.000000, 80.051, -83.2956
1138.000000, 80.204, -82.1753
1150.000000, 80.302, -81.4701
1172.000000, 80.477, -80.2502
1180.000000, 80.540, -79.8241
1206.000000, 80.740, -78.5317
1220.000000, 80.841, -77.8732
1241.000000, 80.985, -76.9072
1250.000000, 81.046, -76.4970
1265.000000, 81.147, -75.8212
1280.000000, 81.245, -75.1849
1315.000000, 81.459, -73.7818
1320.000000, 81.488, -73.5808
1340.000000, 81.599, -72.7972
1360.000000, 81.705, -72.0251
1380.000000, 81.810, -71.2625
1400.000000, 81.915, -70.5179
1430.000000, 82.064, -69.4050
1450.000000, 82.158, -68.6578
1475.000000, 82.274, -67.7443
1500.000000, 82.390, -66.8323
1525.000000, 82.503, -65.9265
1550.000000, 82.614, -65.0410
1575.000000, 82.725, -64.1629
1600.000000, 82.833, -63.3080
1625.000000, 82.942, -62.4710
1650.000000, 83.051, -61.6128
1675.000000, 83.161, -60.7732
1700.000000, 83.269, -59.9642
1725.000000, 83.378, -59.1653
1750.000000, 83.486, -58.3948
1775.000000, 83.595, -57.6494
1800.000000, 83.704, -56.9151
1825.000000, 83.814, -56.1940
1850.000000, 83.924, -55.5035
1875.000000, 84.034, -54.8348
1900.000000, 84.145, -54.1805
1925.000000, 84.256, -53.5672
1950.000000, 84.365, -52.9850
1975.000000, 84.472, -52.4091
2000.000000, 84.581, -51.8625
2030.000000, 84.715, -51.2594
2060.000000, 84.847, -50.6820
2090.000000, 84.976, -50.1546
2120.000000, 85.104, -49.6751
2140.000000, 85.189, -49.3754
2180.000000, 85.355, -48.8355
2200.000000, 85.437, -48.5887
2240.000000, 85.595, -48.1558
2270.000000, 85.711, -47.8874
2300.000000, 85.823, -47.6558
2330.000000, 85.931, -47.4565
2360.000000, 86.034, -47.2942
2400.000000, 86.164, -47.1409
2430.000000, 86.258, -47.0719
2470.000000, 86.373, -47.0315
2500.000000, 86.453, -47.0282
2540.000000, 86.551, -47.0774
2580.000000, 86.639, -47.1518
2620.000000, 86.714, -47.2755
2650.000000, 86.762, -47.3938
2690.000000, 86.818, -47.5547
2720.000000, 86.852, -47.6798
2760.000000, 86.887, -47.8738
2800.000000, 86.910, -48.0842
2850.000000, 86.925, -48.3306
2900.000000, 86.924, -48.5709
2950.000000, 86.907, -48.7936
3000.000000, 86.873, -48.9685
3040.000000, 86.837, -49.0944
3070.000000, 86.806, -49.1708
3110.000000, 86.760, -49.2413
3150.000000, 86.708, -49.2834
3200.000000, 86.635, -49.2863
3250.000000, 86.551, -49.2335
3300.000000, 86.462, -49.1308
3350.000000, 86.370, -48.9637
3400.000000, 86.273, -48.7446
3450.000000, 86.175, -48.4860
3500.000000, 86.073, -48.1754
3550.000000, 85.969, -47.8201
3600.000000, 85.865, -47.4220
3650.000000, 85.762, -46.9846
3700.000000, 85.661, -46.5178
3750.000000, 85.562, -46.0273
3820.000000, 85.422, -45.3014
3870.000000, 85.324, -44.7492
3950.000000, 85.170, -43.8117
4000.000000, 85.074, -43.2277
4060.000000, 84.961, -42.5259
4120.000000, 84.850, -41.8058
4180.000000, 84.739, -41.0602
4250.000000, 84.612, -40.1677
4310.000000, 84.501, -39.4077
4370.000000, 84.390, -38.6359
4440.000000, 84.263, -37.7278
4500.000000, 84.151, -36.9445
4550.000000, 84.055, -36.2674
4620.000000, 83.923, -35.2662
4680.000000, 83.814, -34.3687
4750.000000, 83.696, -33.3229
4820.000000, 83.589, -32.3502
4870.000000, 83.510, -31.7015
4940.000000, 83.389, -30.8346
5000.000000, 83.275, -30.0694
5080.000000, 83.114, -28.9937
5150.000000, 82.973, -28.0206
5220.000000, 82.829, -27.0058
5300.000000, 82.657, -25.7926
5380.000000, 82.482, -24.5064
5450.000000, 82.329, -23.3249
5520.000000, 82.176, -22.0991
5600.000000, 82.004, -20.6502
5700.000000, 81.790, -18.7429
5800.000000, 81.583, -16.6931
5900.000000, 81.384, -14.5527
6000.000000, 81.196, -12.3180
6080.000000, 81.057, -10.4663
6150.000000, 80.945, -8.8110
6220.000000, 80.838, -7.1170
6300.000000, 80.725, -5.1219
6400.000000, 80.600, -2.5742
6500.000000, 80.494, -0.0011
6600.000000, 80.406, 2.6145
6700.000000, 80.340, 5.2797
6800.000000, 80.291, 8.0099
6900.000000, 80.268, 10.7868
7000.000000, 80.275, 13.5712
7100.000000, 80.314, 16.3716
7200.000000, 80.390, 19.1700
7300.000000, 80.500, 21.9081
7400.000000, 80.645, 24.5804
7500.000000, 80.828, 27.1968
7620.000000, 81.100, 30.2164
7750.000000, 81.470, 33.2908
7880.000000, 81.924, 36.0648
8000.000000, 82.426, 38.2387
8120.000000, 83.011, 39.9406
8250.000000, 83.739, 41.0702
8380.000000, 84.562, 41.1385
8500.000000, 85.393, 39.9524
8620.000000, 86.250, 37.2480
8750.000000, 87.123, 32.2803
8850.000000, 87.671, 26.9460
9000.000000, 88.120, 16.9342
9120.000000, 88.055, 8.1477
9250.000000, 87.550, -0.8579
9380.000000, 86.688, -8.2995
9500.000000, 85.707, -13.3376
9620.000000, 84.658, -16.6477
9750.000000, 83.535, -18.6005
9880.000000, 82.478, -19.2542
10000.000000, 81.576, -19.0161
10150.000000, 80.549, -17.8994
10300.000000, 79.623, -16.1769
10440.000000, 78.827, -14.1685
10600.000000, 77.977, -11.3683
10750.000000, 77.241, -8.2087
10900.000000, 76.581, -4.5038
11060.000000, 75.981, -0.0288
11200.000000, 75.558, 4.1519
11380.000000, 75.162, 9.6465
11500.000000, 74.980, 13.3102
11720.000000, 74.795, 19.8726
11800.000000, 74.770, 22.1896
12060.000000, 74.828, 29.3683
12200.000000, 74.942, 32.9674
12410.000000, 75.228, 38.1148
12500.000000, 75.391, 40.1979
12650.000000, 75.721, 43.4395
12800.000000, 76.123, 46.3342
13150.000000, 77.362, 51.3150
13200.000000, 77.574, 51.7673
13400.000000, 78.507, 52.7246
13600.000000, 79.551, 51.9198
13800.000000, 80.622, 48.8581
14000.000000, 81.583, 43.2201
14300.000000, 82.455, 30.6806
14500.000000, 82.486, 21.1243
14750.000000, 81.920, 10.1963
15000.000000, 80.937, 2.0699
15250.000000, 79.844, -3.0628
15500.000000, 78.837, -5.9671
15750.000000, 77.986, -7.5561
16000.000000, 77.260, -8.5328
16250.000000, 76.604, -8.5448
16500.000000, 76.232, -7.2681
16750.000000, 76.192, -7.2534
17000.000000, 76.203, -8.8939
17250.000000, 76.196, -11.7832
17500.000000, 76.101, -16.2425
17750.000000, 75.785, -22.4652
18000.000000, 75.085, -30.1481
18250.000000, 73.843, -38.2991
18500.000000, 72.001, -45.1258
18750.000000, 69.732, -49.2860
19000.000000, 67.302, -51.3388
19250.000000, 64.776, -52.3600
19500.000000, 62.103, -52.8927
19750.000000, 59.438, -53.2048

