* Measurement data measured by REW V5.31.3
* Source: Input device not selected, no input selected, L, volume: no control
* Format: 256k Log Swept Sine, 1 sweep at -12.0 dBFS with no timing reference
* Dated: Dec 2, 2024 3:25:31 PM
* REW Settings:
*  C-weighting compensation: Off
*  Target level: 75.0 dB
* Note: ; 
* Measurement: M-121i (Stock Wide M) L
* Smoothing: 1/24 octave
* Frequency Step: 1/48 octave
* Start Frequency: 20.300 Hz
*
* Freq(Hz), SPL(dB), Phase(degrees)
20.299999, 81.379, 18.1480
20.600000, 81.388, 17.5972
20.900000, 81.399, 16.9071
21.200001, 81.407, 16.1881
21.400000, 81.412, 15.7382
21.799999, 81.423, 15.0045
22.000000, 81.433, 14.7372
22.400000, 81.466, 14.3545
22.700001, 81.498, 14.1152
23.000000, 81.529, 13.8373
23.299999, 81.549, 13.4829
23.600000, 81.553, 13.0541
24.000000, 81.536, 12.4128
24.299999, 81.516, 11.9083
24.700001, 81.493, 11.2030
25.000000, 81.484, 10.6290
25.400000, 81.476, 9.7957
25.799999, 81.465, 8.9468
26.200001, 81.448, 8.1984
26.500000, 81.441, 7.7507
26.900000, 81.451, 7.2755
27.200001, 81.475, 6.9383
27.600000, 81.511, 6.4174
28.000000, 81.517, 5.8173
28.500000, 81.449, 5.1997
29.000000, 81.331, 5.0701
29.500000, 81.268, 5.3516
30.000000, 81.335, 5.3698
30.400000, 81.456, 4.7412
30.700001, 81.546, 3.8655
31.100000, 81.620, 2.3674
31.500000, 81.618, 0.8739
32.000000, 81.529, -0.4654
32.500000, 81.417, -1.0227
33.000000, 81.351, -1.1212
33.500000, 81.337, -1.2553
34.000000, 81.338, -1.6320
34.500000, 81.321, -2.0902
35.000000, 81.288, -2.3970
35.500000, 81.263, -2.5289
36.000000, 81.255, -2.6739
36.500000, 81.249, -3.0036
37.000000, 81.230, -3.5007
37.500000, 81.200, -4.0331
38.200001, 81.170, -4.7393
38.700001, 81.156, -5.2872
39.500000, 81.104, -6.2362
40.000000, 81.052, -6.7132
40.599998, 81.002, -7.0765
41.200001, 80.984, -7.3165
41.799999, 80.986, -7.5768
42.500000, 80.988, -8.0028
43.099998, 80.977, -8.5034
43.700001, 80.949, -9.0902
44.400002, 80.895, -9.7203
45.000000, 80.849, -10.1058
45.500000, 80.823, -10.3345
46.200001, 80.813, -10.6415
46.799999, 80.816, -10.9836
47.500000, 80.802, -11.4520
48.200001, 80.753, -11.8733
48.700001, 80.710, -12.1319
49.400002, 80.661, -12.5519
50.000000, 80.631, -13.0325
50.799999, 80.590, -13.6863
51.500000, 80.554, -14.0860
52.200001, 80.527, -14.3838
53.000000, 80.500, -14.7832
53.799999, 80.453, -15.2337
54.500000, 80.393, -15.5927
55.200001, 80.331, -15.9483
56.000000, 80.280, -16.4321
57.000000, 80.241, -17.0311
58.000000, 80.202, -17.2210
59.000000, 80.188, -17.2613
60.000000, 80.169, -17.8225
60.799999, 80.106, -18.4534
61.500000, 80.015, -18.8002
62.200001, 79.910, -18.8139
63.000000, 79.807, -18.5420
64.000000, 79.726, -18.4932
65.000000, 79.683, -19.3718
66.000000, 79.683, -20.6048
67.000000, 79.710, -21.3210
68.000000, 79.689, -21.5335
69.000000, 79.621, -21.7880
70.000000, 79.556, -22.2219
71.000000, 79.509, -22.5208
72.000000, 79.471, -22.7029
73.000000, 79.431, -22.8870
74.000000, 79.391, -23.0656
75.000000, 79.334, -23.4080
76.199997, 79.254, -23.9769
77.500000, 79.195, -24.4810
78.800003, 79.151, -24.8149
80.000000, 79.117, -25.0730
81.199997, 79.057, -25.3207
82.500000, 78.979, -25.7049
83.800003, 78.912, -26.0536
85.000000, 78.853, -26.2392
86.199997, 78.803, -26.5000
87.500000, 78.751, -26.7649
88.500000, 78.696, -26.9658
90.000000, 78.609, -27.1969
91.199997, 78.559, -27.3179
92.500000, 78.502, -27.5244
93.800003, 78.449, -27.8120
95.000000, 78.399, -28.0813
96.199997, 78.347, -28.2699
97.500000, 78.298, -28.4807
98.800003, 78.240, -28.6922
100.000000, 78.187, -28.8459
101.500000, 78.129, -29.0769
103.000000, 78.070, -29.3389
104.400002, 78.013, -29.5584
106.000000, 77.956, -29.7878
107.500000, 77.901, -30.0087
109.000000, 77.839, -30.2382
110.599998, 77.773, -30.4103
112.000000, 77.722, -30.5584
113.800003, 77.657, -30.7787
115.000000, 77.615, -30.9234
117.199997, 77.542, -31.1439
118.000000, 77.517, -31.2301
120.599998, 77.434, -31.4433
122.000000, 77.386, -31.5857
124.099998, 77.317, -31.7825
125.000000, 77.287, -31.8405
126.500000, 77.236, -31.9223
128.000000, 77.183, -32.0023
131.500000, 77.073, -32.2861
132.000000, 77.060, -32.3331
134.000000, 77.004, -32.5257
136.000000, 76.940, -32.6239
138.000000, 76.885, -32.7882
140.000000, 76.830, -32.9763
143.000000, 76.721, -33.1483
145.000000, 76.667, -33.3313
147.500000, 76.619, -33.5255
150.000000, 76.566, -33.6311
152.500000, 76.500, -33.7620
155.000000, 76.442, -33.9397
157.500000, 76.375, -33.9713
160.000000, 76.310, -33.9835
162.500000, 76.261, -34.1299
165.000000, 76.209, -34.2658
167.500000, 76.147, -34.3739
170.000000, 76.097, -34.4291
172.500000, 76.050, -34.5287
175.000000, 76.004, -34.5732
177.500000, 75.949, -34.6693
180.000000, 75.901, -34.7645
182.500000, 75.864, -34.8904
185.000000, 75.821, -34.9548
187.500000, 75.774, -35.0227
190.000000, 75.724, -35.0781
192.500000, 75.688, -35.1174
195.000000, 75.658, -35.2031
197.500000, 75.620, -35.3091
200.000000, 75.582, -35.4045
203.000000, 75.544, -35.5060
206.000000, 75.511, -35.6086
209.000000, 75.477, -35.6533
212.000000, 75.435, -35.7545
214.000000, 75.402, -35.8320
218.000000, 75.350, -35.9099
220.000000, 75.325, -35.9684
224.000000, 75.270, -36.0546
227.000000, 75.235, -36.0916
230.000000, 75.206, -36.1264
233.000000, 75.180, -36.2114
236.000000, 75.147, -36.2914
240.000000, 75.113, -36.2837
243.000000, 75.092, -36.3595
247.000000, 75.057, -36.5077
250.000000, 75.028, -36.6048
254.000000, 74.990, -36.6521
258.000000, 74.958, -36.7959
262.000000, 74.931, -36.9192
265.000000, 74.908, -36.9355
269.000000, 74.877, -36.9480
272.000000, 74.860, -37.0235
276.000000, 74.842, -37.1771
280.000000, 74.820, -37.3381
285.000000, 74.797, -37.4305
290.000000, 74.775, -37.5478
295.000000, 74.745, -37.6969
300.000000, 74.730, -37.8183
304.000000, 74.721, -37.9268
307.000000, 74.714, -38.0199
311.000000, 74.702, -38.1264
315.000000, 74.689, -38.1750
320.000000, 74.672, -38.2130
325.000000, 74.654, -38.3318
330.000000, 74.642, -38.5055
335.000000, 74.637, -38.6123
340.000000, 74.632, -38.7563
345.000000, 74.631, -38.9281
350.000000, 74.634, -39.0540
355.000000, 74.626, -39.2047
360.000000, 74.618, -39.3752
365.000000, 74.623, -39.5115
370.000000, 74.627, -39.6762
375.000000, 74.627, -39.8587
382.000000, 74.627, -40.0865
387.000000, 74.626, -40.2606
395.000000, 74.632, -40.4751
400.000000, 74.638, -40.6774
406.000000, 74.647, -40.9129
412.000000, 74.662, -41.1039
418.000000, 74.669, -41.2769
425.000000, 74.672, -41.4802
431.000000, 74.682, -41.6709
437.000000, 74.686, -41.9293
444.000000, 74.691, -42.2046
450.000000, 74.705, -42.4327
455.000000, 74.720, -42.6060
462.000000, 74.748, -42.8349
468.000000, 74.770, -43.0515
475.000000, 74.788, -43.3836
482.000000, 74.804, -43.6624
487.000000, 74.817, -43.8489
494.000000, 74.832, -44.1291
500.000000, 74.844, -44.3729
508.000000, 74.865, -44.7324
515.000000, 74.881, -45.0611
522.000000, 74.895, -45.3978
530.000000, 74.912, -45.7918
538.000000, 74.929, -46.1312
545.000000, 74.944, -46.4383
552.000000, 74.958, -46.7537
560.000000, 74.968, -47.1031
570.000000, 74.977, -47.5623
580.000000, 74.989, -48.0093
590.000000, 75.004, -48.4252
600.000000, 75.017, -48.8841
608.000000, 75.026, -49.2487
615.000000, 75.035, -49.5242
622.000000, 75.044, -49.7975
630.000000, 75.045, -50.1012
640.000000, 75.042, -50.4710
650.000000, 75.039, -50.8249
660.000000, 75.044, -51.1433
670.000000, 75.045, -51.4826
680.000000, 75.034, -51.8276
690.000000, 75.025, -52.0838
700.000000, 75.021, -52.3595
710.000000, 75.015, -52.6096
720.000000, 75.005, -52.8178
730.000000, 74.994, -53.0075
740.000000, 74.980, -53.1902
750.000000, 74.972, -53.3326
762.000000, 74.964, -53.4582
775.000000, 74.959, -53.5901
788.000000, 74.966, -53.6684
800.000000, 74.966, -53.7238
812.000000, 74.960, -53.7048
825.000000, 74.960, -53.6078
838.000000, 74.964, -53.5277
850.000000, 74.974, -53.4580
862.000000, 74.990, -53.3542
875.000000, 75.009, -53.2112
885.000000, 75.028, -53.0890
900.000000, 75.061, -52.9130
912.000000, 75.096, -52.7594
925.000000, 75.140, -52.5953
938.000000, 75.187, -52.3833
950.000000, 75.234, -52.1926
962.000000, 75.285, -51.9973
975.000000, 75.349, -51.8436
988.000000, 75.416, -51.7472
1000.000000, 75.477, -51.6507
1015.000000, 75.558, -51.5046
1030.000000, 75.642, -51.3964
1044.000000, 75.718, -51.2935
1060.000000, 75.811, -51.1532
1075.000000, 75.904, -51.0487
1090.000000, 76.002, -51.0085
1106.000000, 76.107, -51.0438
1120.000000, 76.198, -51.1228
1138.000000, 76.316, -51.2428
1150.000000, 76.393, -51.3114
1172.000000, 76.525, -51.5090
1180.000000, 76.571, -51.6187
1206.000000, 76.717, -51.9855
1220.000000, 76.790, -52.1747
1241.000000, 76.899, -52.4971
1250.000000, 76.944, -52.6254
1265.000000, 77.013, -52.8474
1280.000000, 77.076, -53.1155
1315.000000, 77.210, -53.7668
1320.000000, 77.229, -53.8474
1340.000000, 77.304, -54.1663
1360.000000, 77.370, -54.5092
1380.000000, 77.426, -54.7953
1400.000000, 77.480, -55.0245
1430.000000, 77.555, -55.3870
1450.000000, 77.605, -55.6198
1475.000000, 77.665, -55.9179
1500.000000, 77.710, -56.1461
1525.000000, 77.746, -56.3148
1550.000000, 77.789, -56.4828
1575.000000, 77.826, -56.6322
1600.000000, 77.859, -56.7141
1625.000000, 77.890, -56.7476
1650.000000, 77.919, -56.7235
1675.000000, 77.947, -56.6219
1700.000000, 77.978, -56.4548
1725.000000, 78.016, -56.2186
1750.000000, 78.062, -55.9686
1775.000000, 78.112, -55.6674
1800.000000, 78.169, -55.3098
1825.000000, 78.234, -55.0003
1850.000000, 78.316, -54.6743
1875.000000, 78.409, -54.3563
1900.000000, 78.507, -54.0640
1925.000000, 78.609, -53.7896
1950.000000, 78.715, -53.5585
1975.000000, 78.829, -53.3570
2000.000000, 78.946, -53.1767
2030.000000, 79.090, -53.0228
2060.000000, 79.238, -52.9495
2090.000000, 79.388, -52.9448
2120.000000, 79.536, -52.9559
2140.000000, 79.635, -52.9871
2180.000000, 79.836, -53.1370
2200.000000, 79.937, -53.2426
2240.000000, 80.138, -53.5094
2270.000000, 80.286, -53.7762
2300.000000, 80.434, -54.0919
2330.000000, 80.580, -54.4730
2360.000000, 80.723, -54.9124
2400.000000, 80.910, -55.5642
2430.000000, 81.047, -56.1072
2470.000000, 81.223, -56.9120
2500.000000, 81.348, -57.5894
2540.000000, 81.505, -58.5614
2580.000000, 81.651, -59.6102
2620.000000, 81.788, -60.7396
2650.000000, 81.879, -61.6513
2690.000000, 81.984, -62.9218
2720.000000, 82.053, -63.8964
2760.000000, 82.126, -65.2232
2800.000000, 82.182, -66.5841
2850.000000, 82.228, -68.3007
2900.000000, 82.237, -70.0275
2950.000000, 82.215, -71.7354
3000.000000, 82.166, -73.3932
3040.000000, 82.104, -74.6606
3070.000000, 82.048, -75.5698
3110.000000, 81.963, -76.7132
3150.000000, 81.863, -77.7879
3200.000000, 81.722, -79.0404
3250.000000, 81.568, -80.1370
3300.000000, 81.403, -81.0852
3350.000000, 81.228, -81.8914
3400.000000, 81.049, -82.5804
3450.000000, 80.869, -83.1414
3500.000000, 80.690, -83.5750
3550.000000, 80.512, -83.8579
3600.000000, 80.337, -84.0473
3650.000000, 80.166, -84.1698
3700.000000, 80.001, -84.1831
3750.000000, 79.843, -84.1033
3820.000000, 79.636, -83.9184
3870.000000, 79.498, -83.7172
3950.000000, 79.286, -83.2934
4000.000000, 79.162, -82.9675
4060.000000, 79.026, -82.5504
4120.000000, 78.901, -82.1103
4180.000000, 78.784, -81.6439
4250.000000, 78.658, -81.0999
4310.000000, 78.553, -80.6283
4370.000000, 78.447, -80.1511
4440.000000, 78.313, -79.5787
4500.000000, 78.184, -79.0585
4550.000000, 78.067, -78.5076
4620.000000, 77.901, -77.3888
4680.000000, 77.767, -76.0357
4750.000000, 77.673, -73.9004
4820.000000, 77.723, -71.3930
4870.000000, 77.868, -69.7954
4940.000000, 78.179, -68.4368
5000.000000, 78.463, -68.2293
5080.000000, 78.772, -69.0070
5150.000000, 78.942, -70.2417
5220.000000, 79.018, -71.6831
5300.000000, 79.011, -73.3442
5380.000000, 78.922, -74.8963
5450.000000, 78.789, -76.1126
5520.000000, 78.615, -77.1427
5600.000000, 78.369, -78.0499
5700.000000, 77.998, -78.7903
5800.000000, 77.581, -78.9323
5900.000000, 77.132, -78.2762
6000.000000, 76.695, -76.8863
6080.000000, 76.365, -75.3508
6150.000000, 76.096, -73.6361
6220.000000, 75.858, -71.5521
6300.000000, 75.643, -68.7534
6400.000000, 75.490, -64.7035
6500.000000, 75.507, -60.2851
6600.000000, 75.715, -55.9471
6700.000000, 76.105, -52.2205
6800.000000, 76.630, -49.4730
6900.000000, 77.218, -48.0339
7000.000000, 77.779, -47.9146
7100.000000, 78.251, -48.7173
7200.000000, 78.612, -49.9875
7300.000000, 78.867, -51.3018
7400.000000, 79.054, -52.4005
7500.000000, 79.227, -53.1918
7620.000000, 79.482, -53.8304
7750.000000, 79.878, -54.5235
7880.000000, 80.431, -55.9606
8000.000000, 81.050, -58.7387
8120.000000, 81.662, -63.6516
8250.000000, 82.084, -71.5677
8380.000000, 82.000, -81.1584
8500.000000, 81.380, -89.7382
8620.000000, 80.315, -96.3159
8750.000000, 78.880, -100.0232
8850.000000, 77.749, -100.3114
9000.000000, 76.259, -97.2337
9120.000000, 75.380, -92.6146
9250.000000, 74.817, -86.4007
9380.000000, 74.676, -79.8678
9500.000000, 74.901, -74.4214
9620.000000, 75.424, -70.1594
9750.000000, 76.271, -67.5194
9880.000000, 77.287, -67.9228
10000.000000, 78.154, -71.4312
10150.000000, 78.843, -79.0870
10300.000000, 78.907, -88.2393
10440.000000, 78.429, -96.0349
10600.000000, 77.481, -102.4040
10750.000000, 76.466, -105.6770
10900.000000, 75.498, -106.8860
11060.000000, 74.611, -106.6254
11200.000000, 73.981, -105.6411
11380.000000, 73.369, -103.9446
11500.000000, 73.072, -102.9062
11720.000000, 72.657, -101.9355
11800.000000, 72.508, -101.9484
12060.000000, 71.868, -101.9579
12200.000000, 71.483, -101.2654
12410.000000, 71.082, -98.3940
12500.000000, 71.159, -97.0609
12650.000000, 71.451, -98.4233
12800.000000, 71.216, -102.8428
13150.000000, 69.348, -106.0881
13200.000000, 69.075, -105.7394
13400.000000, 68.069, -103.1028
13600.000000, 67.222, -98.9656
13800.000000, 66.548, -93.7980
14000.000000, 66.094, -87.8346
14300.000000, 65.910, -77.7730
14500.000000, 66.159, -71.1294
14750.000000, 66.892, -63.8124
15000.000000, 68.111, -58.4433
15250.000000, 69.773, -56.3154
15500.000000, 71.673, -59.0259
15750.000000, 73.414, -67.5300
16000.000000, 74.525, -80.5945
16250.000000, 74.833, -95.0823
16500.000000, 74.540, -108.5912
16750.000000, 73.902, -120.8084
17000.000000, 72.972, -132.2566
17250.000000, 71.659, -142.8927
17500.000000, 69.909, -151.6459
17750.000000, 67.788, -157.3400
18000.000000, 65.478, -158.7138
18250.000000, 63.390, -154.9306
18500.000000, 62.060, -151.3259
18750.000000, 60.954, -151.9479
19000.000000, 59.655, -154.6717
19250.000000, 58.155, -159.3987
19500.000000, 56.392, -166.5842
19750.000000, 54.387, -175.9858
