* Measurement data measured by REW V5.31.3
* Source: Input device not selected, no input selected, L, volume: no control
* Format: 256k Log Swept Sine, 1 sweep at -12.0 dBFS with no timing reference
* Dated: Dec 2, 2024 11:41:35 PM
* REW Settings:
*  C-weighting compensation: Off
*  Target level: 75.0 dB
* Note: ; 
* Measurement: M-121i (Final E M Shallow) L
* Smoothing: 1/24 octave
* Frequency Step: 1/48 octave
* Start Frequency: 20.300 Hz
*
* Freq(Hz), SPL(dB), Phase(degrees)
20.299999, 81.383, 17.0218
20.600000, 81.367, 16.6589
20.900000, 81.349, 16.2072
21.200001, 81.339, 15.7055
21.400000, 81.339, 15.3479
21.799999, 81.358, 14.5839
22.000000, 81.376, 14.1774
22.400000, 81.425, 13.3083
22.700001, 81.465, 12.6046
23.000000, 81.501, 11.8680
23.299999, 81.525, 11.1289
23.600000, 81.537, 10.4329
24.000000, 81.536, 9.6488
24.299999, 81.527, 9.1994
24.700001, 81.514, 8.7604
25.000000, 81.506, 8.4946
25.400000, 81.495, 8.1238
25.799999, 81.480, 7.6537
26.200001, 81.459, 7.0628
26.500000, 81.443, 6.5607
26.900000, 81.425, 5.8662
27.200001, 81.416, 5.3704
27.600000, 81.402, 4.8070
28.000000, 81.382, 4.4079
28.500000, 81.349, 4.1268
29.000000, 81.328, 3.8952
29.500000, 81.337, 3.4353
30.000000, 81.378, 2.6358
30.400000, 81.418, 1.8578
30.700001, 81.444, 1.2888
31.100000, 81.461, 0.6358
31.500000, 81.444, 0.1366
32.000000, 81.374, -0.3236
32.500000, 81.273, -0.7203
33.000000, 81.196, -1.1709
33.500000, 81.187, -1.7261
34.000000, 81.233, -2.3192
34.500000, 81.278, -2.7957
35.000000, 81.274, -3.0754
35.500000, 81.217, -3.2913
36.000000, 81.138, -3.7110
36.500000, 81.074, -4.4655
37.000000, 81.042, -5.3652
37.500000, 81.040, -6.0614
38.200001, 81.045, -6.4497
38.700001, 81.024, -6.5656
39.500000, 80.956, -7.1366
40.000000, 80.936, -7.7412
40.599998, 80.954, -8.3662
41.200001, 80.969, -8.6076
41.799999, 80.926, -8.6099
42.500000, 80.812, -8.9394
43.099998, 80.728, -9.8134
43.700001, 80.703, -10.7881
44.400002, 80.715, -11.1704
45.000000, 80.698, -10.8402
45.500000, 80.641, -10.5848
46.200001, 80.547, -10.9462
46.799999, 80.528, -11.9368
47.500000, 80.566, -13.0992
48.200001, 80.554, -13.4056
48.700001, 80.499, -13.1936
49.400002, 80.421, -13.2471
50.000000, 80.374, -13.9908
50.799999, 80.321, -14.7927
51.500000, 80.288, -14.6402
52.200001, 80.233, -14.5894
53.000000, 80.171, -15.1923
53.799999, 80.252, -16.0576
54.500000, 80.266, -16.7597
55.200001, 80.064, -16.9190
56.000000, 79.930, -17.6228
57.000000, 80.165, -22.4541
58.000000, 80.050, -23.7046
59.000000, 79.991, -18.7793
60.000000, 79.847, -19.5547
60.799999, 79.565, -21.9011
61.500000, 79.717, -22.9371
62.200001, 80.014, -24.4094
63.000000, 79.861, -24.9572
64.000000, 79.554, -19.6109
65.000000, 79.831, -17.7264
66.000000, 79.499, -22.1111
67.000000, 79.110, -23.7866
68.000000, 79.359, -23.7816
69.000000, 79.304, -23.5588
70.000000, 78.932, -21.2920
71.000000, 78.778, -18.3551
72.000000, 78.898, -17.9932
73.000000, 78.993, -20.9602
74.000000, 78.997, -24.0096
75.000000, 78.895, -24.8023
76.199997, 78.619, -23.9954
77.500000, 78.563, -23.2161
78.800003, 78.684, -24.0395
80.000000, 78.561, -25.1596
81.199997, 78.519, -26.0783
82.500000, 78.423, -26.5127
83.800003, 78.273, -25.7897
85.000000, 78.199, -25.2453
86.199997, 78.075, -24.5655
87.500000, 77.912, -24.5273
88.500000, 77.830, -25.6257
90.000000, 77.975, -26.4013
91.199997, 77.966, -27.0249
92.500000, 77.703, -27.8159
93.800003, 77.673, -27.3224
95.000000, 77.506, -25.7581
96.199997, 77.003, -23.9608
97.500000, 76.837, -23.7410
98.800003, 77.204, -25.3482
100.000000, 77.486, -25.3770
101.500000, 77.766, -23.9377
103.000000, 78.111, -23.1883
104.400002, 78.193, -22.5847
106.000000, 77.968, -22.2601
107.500000, 77.807, -23.3687
109.000000, 77.950, -25.1023
110.599998, 77.935, -26.4180
112.000000, 77.801, -27.0540
113.800003, 77.722, -27.2135
115.000000, 77.693, -27.3195
117.199997, 77.615, -28.0336
118.000000, 77.608, -28.6030
120.599998, 77.536, -30.1592
122.000000, 77.401, -29.6640
124.099998, 77.321, -29.3901
125.000000, 77.294, -29.3962
126.500000, 77.216, -29.4209
128.000000, 77.109, -29.8234
131.500000, 76.951, -30.7782
132.000000, 76.944, -30.9238
134.000000, 76.915, -31.1511
136.000000, 76.895, -31.0507
138.000000, 76.827, -31.1251
140.000000, 76.731, -31.1745
143.000000, 76.612, -31.4001
145.000000, 76.547, -31.7216
147.500000, 76.493, -32.0704
150.000000, 76.433, -32.2268
152.500000, 76.368, -32.1925
155.000000, 76.292, -32.2736
157.500000, 76.208, -32.3680
160.000000, 76.145, -32.3855
162.500000, 76.099, -32.4584
165.000000, 76.047, -32.5051
167.500000, 75.976, -32.6984
170.000000, 75.912, -32.6504
172.500000, 75.867, -32.5385
175.000000, 75.816, -32.5588
177.500000, 75.748, -32.7403
180.000000, 75.684, -32.9129
182.500000, 75.642, -32.9787
185.000000, 75.598, -32.9952
187.500000, 75.548, -32.9987
190.000000, 75.497, -33.0731
192.500000, 75.452, -33.1906
195.000000, 75.406, -33.2100
197.500000, 75.354, -33.2543
200.000000, 75.302, -33.3037
203.000000, 75.247, -33.2897
206.000000, 75.193, -33.2143
209.000000, 75.138, -33.1224
212.000000, 75.073, -33.0989
214.000000, 75.028, -33.0868
218.000000, 74.956, -33.0823
220.000000, 74.925, -32.9933
224.000000, 74.851, -32.8143
227.000000, 74.775, -32.6723
230.000000, 74.721, -32.3226
233.000000, 74.699, -31.8262
236.000000, 74.698, -31.2725
240.000000, 74.729, -30.6812
243.000000, 74.786, -30.4057
247.000000, 74.887, -30.1673
250.000000, 74.959, -30.3427
254.000000, 75.023, -30.7989
258.000000, 75.042, -31.3378
262.000000, 75.034, -31.8422
265.000000, 75.027, -32.1869
269.000000, 75.006, -32.5126
272.000000, 74.978, -32.7144
276.000000, 74.943, -32.9874
280.000000, 74.913, -33.2619
285.000000, 74.865, -33.4428
290.000000, 74.825, -33.5234
295.000000, 74.800, -33.7023
300.000000, 74.770, -33.8984
304.000000, 74.758, -33.9876
307.000000, 74.755, -34.0319
311.000000, 74.746, -34.1072
315.000000, 74.723, -34.1924
320.000000, 74.688, -34.3093
325.000000, 74.670, -34.4119
330.000000, 74.663, -34.4930
335.000000, 74.657, -34.5484
340.000000, 74.657, -34.6125
345.000000, 74.651, -34.7102
350.000000, 74.643, -34.8629
355.000000, 74.630, -34.9648
360.000000, 74.619, -35.0528
365.000000, 74.610, -35.1445
370.000000, 74.603, -35.2492
375.000000, 74.605, -35.3108
382.000000, 74.608, -35.4182
387.000000, 74.622, -35.5755
395.000000, 74.628, -35.8226
400.000000, 74.624, -35.9022
406.000000, 74.630, -35.9887
412.000000, 74.640, -36.0969
418.000000, 74.657, -36.1965
425.000000, 74.672, -36.3792
431.000000, 74.674, -36.5605
437.000000, 74.677, -36.7174
444.000000, 74.692, -36.8778
450.000000, 74.706, -37.0614
455.000000, 74.718, -37.1582
462.000000, 74.737, -37.2504
468.000000, 74.754, -37.4433
475.000000, 74.766, -37.6525
482.000000, 74.777, -37.7976
487.000000, 74.789, -37.9217
494.000000, 74.810, -38.1084
500.000000, 74.826, -38.3129
508.000000, 74.837, -38.6109
515.000000, 74.849, -38.8222
522.000000, 74.868, -39.0237
530.000000, 74.891, -39.2582
538.000000, 74.907, -39.5124
545.000000, 74.920, -39.7099
552.000000, 74.936, -39.8812
560.000000, 74.955, -40.1080
570.000000, 74.976, -40.4488
580.000000, 74.991, -40.7657
590.000000, 75.000, -41.0124
600.000000, 75.009, -41.3052
608.000000, 75.017, -41.5426
615.000000, 75.026, -41.7304
622.000000, 75.033, -41.9152
630.000000, 75.038, -42.1148
640.000000, 75.045, -42.3199
650.000000, 75.047, -42.5330
660.000000, 75.041, -42.7330
670.000000, 75.044, -42.9239
680.000000, 75.057, -43.1087
690.000000, 75.064, -43.2587
700.000000, 75.066, -43.3774
710.000000, 75.061, -43.5003
720.000000, 75.055, -43.5505
730.000000, 75.051, -43.5450
740.000000, 75.043, -43.5638
750.000000, 75.038, -43.6266
762.000000, 75.033, -43.6180
775.000000, 75.030, -43.5452
788.000000, 75.034, -43.4466
800.000000, 75.043, -43.3200
812.000000, 75.048, -43.1667
825.000000, 75.045, -42.9764
838.000000, 75.053, -42.7089
850.000000, 75.072, -42.4035
862.000000, 75.096, -42.1149
875.000000, 75.124, -41.8196
885.000000, 75.144, -41.5898
900.000000, 75.179, -41.1955
912.000000, 75.220, -40.8722
925.000000, 75.269, -40.5409
938.000000, 75.320, -40.1975
950.000000, 75.368, -39.8895
962.000000, 75.427, -39.5648
975.000000, 75.494, -39.2086
988.000000, 75.572, -38.8736
1000.000000, 75.647, -38.5802
1015.000000, 75.729, -38.2810
1030.000000, 75.803, -38.0398
1044.000000, 75.879, -37.7332
1060.000000, 75.981, -37.3521
1075.000000, 76.081, -37.0372
1090.000000, 76.184, -36.8419
1106.000000, 76.290, -36.6828
1120.000000, 76.383, -36.5483
1138.000000, 76.509, -36.4219
1150.000000, 76.588, -36.3634
1172.000000, 76.723, -36.3106
1180.000000, 76.772, -36.3019
1206.000000, 76.921, -36.2988
1220.000000, 76.996, -36.3070
1241.000000, 77.104, -36.3254
1250.000000, 77.147, -36.3287
1265.000000, 77.215, -36.3208
1280.000000, 77.280, -36.3106
1315.000000, 77.422, -36.3448
1320.000000, 77.441, -36.3480
1340.000000, 77.516, -36.3499
1360.000000, 77.593, -36.3087
1380.000000, 77.666, -36.2444
1400.000000, 77.730, -36.1788
1430.000000, 77.826, -36.1189
1450.000000, 77.894, -36.0275
1475.000000, 77.971, -35.8767
1500.000000, 78.043, -35.7970
1525.000000, 78.102, -35.7234
1550.000000, 78.152, -35.5993
1575.000000, 78.203, -35.4228
1600.000000, 78.257, -35.2393
1625.000000, 78.301, -34.9710
1650.000000, 78.343, -34.6445
1675.000000, 78.384, -34.2609
1700.000000, 78.424, -33.8263
1725.000000, 78.468, -33.3474
1750.000000, 78.521, -32.7974
1775.000000, 78.581, -32.2087
1800.000000, 78.650, -31.6063
1825.000000, 78.727, -30.9806
1850.000000, 78.813, -30.3267
1875.000000, 78.911, -29.6756
1900.000000, 79.017, -29.0564
1925.000000, 79.128, -28.4833
1950.000000, 79.249, -27.9392
1975.000000, 79.376, -27.4497
2000.000000, 79.509, -27.0191
2030.000000, 79.667, -26.5590
2060.000000, 79.827, -26.1384
2090.000000, 79.983, -25.7547
2120.000000, 80.140, -25.4555
2140.000000, 80.247, -25.2806
2180.000000, 80.460, -24.9693
2200.000000, 80.567, -24.8278
2240.000000, 80.777, -24.5690
2270.000000, 80.933, -24.4139
2300.000000, 81.093, -24.2781
2330.000000, 81.258, -24.1568
2360.000000, 81.434, -24.0727
2400.000000, 81.685, -24.1077
2430.000000, 81.877, -24.3071
2470.000000, 82.124, -24.8225
2500.000000, 82.293, -25.3415
2540.000000, 82.493, -26.1105
2580.000000, 82.669, -26.9911
2620.000000, 82.822, -27.9375
2650.000000, 82.921, -28.6694
2690.000000, 83.034, -29.6809
2720.000000, 83.105, -30.4668
2760.000000, 83.177, -31.5146
2800.000000, 83.225, -32.5470
2850.000000, 83.250, -33.7904
2900.000000, 83.251, -34.9371
2950.000000, 83.232, -35.9797
3000.000000, 83.194, -36.9129
3040.000000, 83.149, -37.5845
3070.000000, 83.110, -38.0605
3110.000000, 83.052, -38.6636
3150.000000, 82.984, -39.2192
3200.000000, 82.885, -39.8445
3250.000000, 82.774, -40.3814
3300.000000, 82.652, -40.8174
3350.000000, 82.520, -41.1412
3400.000000, 82.384, -41.3369
3450.000000, 82.240, -41.4468
3500.000000, 82.090, -41.4707
3550.000000, 81.934, -41.3962
3600.000000, 81.773, -41.1943
3650.000000, 81.608, -40.8276
3700.000000, 81.445, -40.2452
3750.000000, 81.300, -39.4727
3820.000000, 81.144, -38.2178
3870.000000, 81.068, -37.3065
3950.000000, 80.990, -36.0081
4000.000000, 80.957, -35.3266
4060.000000, 80.915, -34.6690
4120.000000, 80.865, -34.1457
4180.000000, 80.798, -33.6626
4250.000000, 80.689, -33.0879
4310.000000, 80.576, -32.5505
4370.000000, 80.443, -31.9168
4440.000000, 80.267, -31.0500
4500.000000, 80.100, -30.1279
4550.000000, 79.949, -29.1645
4620.000000, 79.729, -27.4082
4680.000000, 79.561, -25.3806
4750.000000, 79.445, -22.3084
4820.000000, 79.501, -18.8162
4870.000000, 79.666, -16.5096
4940.000000, 80.016, -14.2197
5000.000000, 80.343, -13.3266
5080.000000, 80.711, -13.3052
5150.000000, 80.927, -13.9053
5220.000000, 81.043, -14.7390
5300.000000, 81.077, -15.7179
5380.000000, 81.025, -16.5617
5450.000000, 80.924, -17.1313
5520.000000, 80.781, -17.4791
5600.000000, 80.576, -17.5506
5700.000000, 80.273, -17.0786
5800.000000, 79.944, -15.9873
5900.000000, 79.626, -14.1190
6000.000000, 79.356, -11.6763
6080.000000, 79.179, -9.3576
6150.000000, 79.064, -7.0681
6220.000000, 78.994, -4.5494
6300.000000, 78.983, -1.4199
6400.000000, 79.092, 2.7879
6500.000000, 79.374, 6.9912
6600.000000, 79.855, 10.8177
6700.000000, 80.521, 13.7386
6800.000000, 81.331, 15.2090
6900.000000, 82.200, 14.8619
7000.000000, 83.021, 12.6230
7100.000000, 83.707, 8.7175
7200.000000, 84.191, 3.4775
7300.000000, 84.430, -2.6826
7400.000000, 84.394, -9.2733
7500.000000, 84.071, -15.7853
7620.000000, 83.322, -22.7324
7750.000000, 82.142, -28.1980
7880.000000, 80.731, -30.7803
8000.000000, 79.389, -30.3571
8120.000000, 78.161, -27.4119
8250.000000, 77.125, -22.1667
8380.000000, 76.467, -16.3063
8500.000000, 76.095, -11.5009
8620.000000, 75.792, -7.3355
8750.000000, 75.474, -2.6507
8850.000000, 75.292, 1.5235
9000.000000, 75.260, 8.6751
9120.000000, 75.543, 14.5686
9250.000000, 76.221, 19.9120
9380.000000, 77.205, 22.6539
9500.000000, 78.166, 21.8218
9620.000000, 78.892, 17.8644
9750.000000, 79.184, 11.6220
9880.000000, 78.918, 5.4520
10000.000000, 78.286, 1.4711
10150.000000, 77.290, -0.1245
10300.000000, 76.384, 1.4426
10440.000000, 75.766, 4.5997
10600.000000, 75.364, 9.0174
10750.000000, 75.261, 13.1021
10900.000000, 75.382, 16.6120
11060.000000, 75.701, 19.3017
11200.000000, 76.098, 20.3703
11380.000000, 76.680, 19.5916
11500.000000, 77.028, 17.5401
11720.000000, 77.297, 10.8371
11800.000000, 77.202, 7.8287
12060.000000, 76.156, -0.0311
12200.000000, 75.339, -1.7419
12410.000000, 74.324, 0.1839
12500.000000, 74.220, 1.2778
12650.000000, 74.172, -0.6698
12800.000000, 73.632, -4.4577
13150.000000, 71.678, -7.1554
13200.000000, 71.415, -7.1893
13400.000000, 70.362, -7.2371
13600.000000, 69.239, -7.1076
13800.000000, 68.025, -6.2235
14000.000000, 66.738, -4.0808
14300.000000, 64.815, 1.8707
14500.000000, 63.612, 7.5788
14750.000000, 62.361, 16.4099
15000.000000, 61.432, 26.2916
15250.000000, 60.836, 36.8013
15500.000000, 60.648, 47.5416
15750.000000, 60.874, 57.7239
16000.000000, 61.469, 66.2268
16250.000000, 62.341, 72.2698
16500.000000, 63.366, 75.6196
16750.000000, 64.369, 76.1522
17000.000000, 65.292, 74.3884
17250.000000, 66.113, 70.6017
17500.000000, 66.841, 64.7360
17750.000000, 67.415, 55.5773
18000.000000, 67.521, 42.1904
18250.000000, 66.748, 26.1046
18500.000000, 64.814, 10.0664
18750.000000, 61.744, -1.1910
19000.000000, 58.185, -6.4030
19250.000000, 54.674, -8.6944
19500.000000, 51.293, -10.4186
19750.000000, 48.015, -12.1577
