* Measurement data measured by REW V5.31.3
* Source: Input device not selected, no input selected, L, volume: no control
* Format: 256k Log Swept Sine, 1 sweep at -12.0 dBFS with no timing reference
* Dated: Dec 3, 2024 12:07:56 AM
* REW Settings:
*  C-weighting compensation: Off
*  Target level: 75.0 dB
* Note: ; 
* Measurement: M-121i (Velvet M) L
* Smoothing: 1/24 octave
* Frequency Step: 1/48 octave
* Start Frequency: 20.300 Hz
*
* Freq(Hz), SPL(dB), Phase(degrees)
20.299999, 81.366, 16.8524
20.600000, 81.388, 16.5328
20.900000, 81.404, 16.1643
21.200001, 81.408, 15.7532
21.400000, 81.406, 15.4434
21.799999, 81.399, 14.7181
22.000000, 81.397, 14.3023
22.400000, 81.398, 13.3914
22.700001, 81.403, 12.6790
23.000000, 81.408, 11.9880
23.299999, 81.409, 11.3567
23.600000, 81.400, 10.8109
24.000000, 81.372, 10.2285
24.299999, 81.340, 9.8882
24.700001, 81.293, 9.5180
25.000000, 81.265, 9.2624
25.400000, 81.249, 8.8863
25.799999, 81.266, 8.4095
26.200001, 81.308, 7.8074
26.500000, 81.343, 7.2919
26.900000, 81.377, 6.5824
27.200001, 81.386, 6.0810
27.600000, 81.378, 5.4962
28.000000, 81.361, 4.9973
28.500000, 81.348, 4.3905
29.000000, 81.355, 3.6798
29.500000, 81.365, 2.8793
30.000000, 81.356, 2.1477
30.400000, 81.334, 1.7090
30.700001, 81.313, 1.4661
31.100000, 81.290, 1.1980
31.500000, 81.280, 0.8924
32.000000, 81.283, 0.3485
32.500000, 81.286, -0.3473
33.000000, 81.268, -1.0237
33.500000, 81.226, -1.5334
34.000000, 81.173, -1.8898
34.500000, 81.125, -2.2446
35.000000, 81.094, -2.7239
35.500000, 81.083, -3.3107
36.000000, 81.088, -3.8890
36.500000, 81.101, -4.3733
37.000000, 81.103, -4.7740
37.500000, 81.082, -5.1509
38.200001, 81.024, -5.7176
38.700001, 80.988, -6.1647
39.500000, 80.962, -6.9075
40.000000, 80.949, -7.3294
40.599998, 80.923, -7.7716
41.200001, 80.890, -8.2264
41.799999, 80.859, -8.7649
42.500000, 80.824, -9.3820
43.099998, 80.787, -9.7512
43.700001, 80.745, -10.0192
44.400002, 80.698, -10.4377
45.000000, 80.663, -10.9199
45.500000, 80.644, -11.2975
46.200001, 80.625, -11.6931
46.799999, 80.591, -12.0163
47.500000, 80.516, -12.5396
48.200001, 80.444, -13.1549
48.700001, 80.428, -13.5288
49.400002, 80.456, -13.8659
50.000000, 80.476, -14.0223
50.799999, 80.445, -14.2508
51.500000, 80.381, -14.6477
52.200001, 80.320, -15.1521
53.000000, 80.262, -15.5758
53.799999, 80.215, -15.9141
54.500000, 80.187, -16.4129
55.200001, 80.173, -17.0107
56.000000, 80.145, -17.3589
57.000000, 80.031, -17.0595
58.000000, 79.944, -17.0283
59.000000, 79.972, -17.9815
60.000000, 79.968, -18.4814
60.799999, 79.925, -18.6939
61.500000, 79.864, -19.4290
62.200001, 79.799, -20.2309
63.000000, 79.792, -20.3699
64.000000, 79.789, -20.1557
65.000000, 79.619, -20.4520
66.000000, 79.503, -21.1313
67.000000, 79.512, -21.9829
68.000000, 79.482, -22.6814
69.000000, 79.353, -23.4196
70.000000, 79.212, -23.6063
71.000000, 79.168, -23.3866
72.000000, 79.152, -23.3559
73.000000, 79.154, -23.5482
74.000000, 79.148, -24.0103
75.000000, 79.121, -24.3428
76.199997, 79.089, -24.7041
77.500000, 78.959, -25.0070
78.800003, 78.822, -25.1674
80.000000, 78.778, -25.3350
81.199997, 78.781, -25.4663
82.500000, 78.715, -25.8056
83.800003, 78.645, -26.1356
85.000000, 78.607, -26.3229
86.199997, 78.543, -26.4725
87.500000, 78.451, -27.2439
88.500000, 78.377, -27.8585
90.000000, 78.289, -27.9989
91.199997, 78.242, -27.8633
92.500000, 78.206, -27.8602
93.800003, 78.157, -28.0220
95.000000, 78.114, -28.2407
96.199997, 78.081, -28.6317
97.500000, 78.028, -29.0679
98.800003, 77.939, -29.2567
100.000000, 77.848, -29.5956
101.500000, 77.777, -29.9342
103.000000, 77.749, -29.7590
104.400002, 77.673, -29.9831
106.000000, 77.589, -30.0850
107.500000, 77.537, -30.1274
109.000000, 77.484, -30.2231
110.599998, 77.397, -30.1560
112.000000, 77.283, -30.1376
113.800003, 77.255, -30.4890
115.000000, 77.275, -30.8530
117.199997, 77.226, -31.0505
118.000000, 77.199, -31.1382
120.599998, 77.108, -31.5706
122.000000, 77.062, -31.4353
124.099998, 76.984, -31.5032
125.000000, 76.944, -31.6102
126.500000, 76.891, -31.7674
128.000000, 76.849, -31.9058
131.500000, 76.706, -31.9968
132.000000, 76.685, -32.0449
134.000000, 76.600, -32.2435
136.000000, 76.511, -32.2683
138.000000, 76.410, -32.3109
140.000000, 76.385, -32.4334
143.000000, 76.374, -32.5808
145.000000, 76.329, -32.7204
147.500000, 76.276, -32.6687
150.000000, 76.215, -32.7223
152.500000, 76.154, -32.9984
155.000000, 76.055, -33.2416
157.500000, 75.950, -33.2250
160.000000, 75.862, -33.0839
162.500000, 75.791, -33.0168
165.000000, 75.722, -33.0089
167.500000, 75.674, -32.8152
170.000000, 75.635, -32.4708
172.500000, 75.549, -32.2770
175.000000, 75.490, -31.9877
177.500000, 75.477, -31.4434
180.000000, 75.512, -30.9681
182.500000, 75.547, -30.8054
185.000000, 75.580, -31.0001
187.500000, 75.609, -31.4555
190.000000, 75.615, -31.9986
192.500000, 75.593, -32.3880
195.000000, 75.557, -32.6575
197.500000, 75.519, -32.9854
200.000000, 75.481, -33.2574
203.000000, 75.431, -33.4824
206.000000, 75.387, -33.5926
209.000000, 75.336, -33.7111
212.000000, 75.278, -33.8512
214.000000, 75.248, -33.9201
218.000000, 75.207, -34.1036
220.000000, 75.180, -34.2098
224.000000, 75.130, -34.2292
227.000000, 75.101, -34.2634
230.000000, 75.066, -34.3674
233.000000, 75.029, -34.4439
236.000000, 74.995, -34.4989
240.000000, 74.948, -34.6328
243.000000, 74.907, -34.7426
247.000000, 74.864, -34.7744
250.000000, 74.841, -34.8360
254.000000, 74.811, -34.9441
258.000000, 74.781, -34.9956
262.000000, 74.755, -35.0725
265.000000, 74.738, -35.1432
269.000000, 74.716, -35.1927
272.000000, 74.695, -35.2110
276.000000, 74.666, -35.2449
280.000000, 74.637, -35.3152
285.000000, 74.611, -35.4481
290.000000, 74.585, -35.5565
295.000000, 74.564, -35.6506
300.000000, 74.550, -35.7400
304.000000, 74.536, -35.7452
307.000000, 74.522, -35.7645
311.000000, 74.505, -35.8324
315.000000, 74.492, -35.9375
320.000000, 74.475, -36.0924
325.000000, 74.460, -36.2675
330.000000, 74.448, -36.3487
335.000000, 74.430, -36.4010
340.000000, 74.420, -36.4457
345.000000, 74.413, -36.4996
350.000000, 74.401, -36.5825
355.000000, 74.391, -36.7335
360.000000, 74.380, -36.8210
365.000000, 74.371, -36.8454
370.000000, 74.366, -36.9045
375.000000, 74.354, -37.0288
382.000000, 74.328, -37.0899
387.000000, 74.313, -37.0640
395.000000, 74.301, -36.9527
400.000000, 74.304, -36.7771
406.000000, 74.330, -36.4852
412.000000, 74.395, -36.2302
418.000000, 74.483, -36.2112
425.000000, 74.580, -36.5240
431.000000, 74.642, -36.9332
437.000000, 74.674, -37.3454
444.000000, 74.700, -37.8171
450.000000, 74.715, -38.1715
455.000000, 74.721, -38.4256
462.000000, 74.727, -38.7643
468.000000, 74.735, -39.0261
475.000000, 74.745, -39.3282
482.000000, 74.760, -39.6094
487.000000, 74.771, -39.7941
494.000000, 74.787, -40.0407
500.000000, 74.800, -40.2491
508.000000, 74.809, -40.5268
515.000000, 74.820, -40.8093
522.000000, 74.835, -41.0992
530.000000, 74.851, -41.3783
538.000000, 74.866, -41.6299
545.000000, 74.879, -41.8777
552.000000, 74.891, -42.1280
560.000000, 74.906, -42.4115
570.000000, 74.921, -42.7698
580.000000, 74.940, -43.0907
590.000000, 74.953, -43.4257
600.000000, 74.955, -43.7421
608.000000, 74.961, -43.9926
615.000000, 74.969, -44.1817
622.000000, 74.976, -44.3840
630.000000, 74.981, -44.6171
640.000000, 74.985, -44.8779
650.000000, 74.991, -45.1337
660.000000, 74.993, -45.3987
670.000000, 74.990, -45.6112
680.000000, 74.990, -45.7864
690.000000, 74.989, -45.9610
700.000000, 74.985, -46.1243
710.000000, 74.984, -46.2487
720.000000, 74.983, -46.3539
730.000000, 74.981, -46.4433
740.000000, 74.980, -46.4899
750.000000, 74.978, -46.5103
762.000000, 74.969, -46.5347
775.000000, 74.961, -46.5332
788.000000, 74.958, -46.4659
800.000000, 74.962, -46.3654
812.000000, 74.969, -46.2096
825.000000, 74.978, -46.0092
838.000000, 74.989, -45.8122
850.000000, 75.004, -45.6076
862.000000, 75.027, -45.3581
875.000000, 75.047, -45.0873
885.000000, 75.064, -44.8828
900.000000, 75.102, -44.4837
912.000000, 75.136, -44.1579
925.000000, 75.175, -43.8651
938.000000, 75.226, -43.5461
950.000000, 75.278, -43.2235
962.000000, 75.338, -42.9050
975.000000, 75.410, -42.5718
988.000000, 75.480, -42.2710
1000.000000, 75.545, -42.0271
1015.000000, 75.630, -41.7810
1030.000000, 75.709, -41.5395
1044.000000, 75.785, -41.2795
1060.000000, 75.882, -40.9801
1075.000000, 75.977, -40.7652
1090.000000, 76.079, -40.5866
1106.000000, 76.190, -40.4719
1120.000000, 76.282, -40.4194
1138.000000, 76.398, -40.3674
1150.000000, 76.473, -40.3478
1172.000000, 76.607, -40.3268
1180.000000, 76.654, -40.3295
1206.000000, 76.805, -40.4094
1220.000000, 76.878, -40.4798
1241.000000, 76.986, -40.6129
1250.000000, 77.031, -40.6805
1265.000000, 77.101, -40.7855
1280.000000, 77.167, -40.8718
1315.000000, 77.306, -41.1012
1320.000000, 77.324, -41.1361
1340.000000, 77.399, -41.2565
1360.000000, 77.472, -41.3803
1380.000000, 77.536, -41.4780
1400.000000, 77.594, -41.5503
1430.000000, 77.675, -41.6473
1450.000000, 77.726, -41.6996
1475.000000, 77.788, -41.7310
1500.000000, 77.846, -41.7244
1525.000000, 77.898, -41.7120
1550.000000, 77.946, -41.6744
1575.000000, 77.989, -41.5776
1600.000000, 78.029, -41.4325
1625.000000, 78.068, -41.2589
1650.000000, 78.105, -41.0425
1675.000000, 78.138, -40.7696
1700.000000, 78.173, -40.4266
1725.000000, 78.210, -40.0056
1750.000000, 78.256, -39.5429
1775.000000, 78.309, -39.0498
1800.000000, 78.370, -38.5293
1825.000000, 78.439, -37.9511
1850.000000, 78.522, -37.3535
1875.000000, 78.615, -36.7586
1900.000000, 78.716, -36.1864
1925.000000, 78.825, -35.6762
1950.000000, 78.940, -35.2123
1975.000000, 79.062, -34.7615
2000.000000, 79.187, -34.3389
2030.000000, 79.337, -33.8841
2060.000000, 79.491, -33.5425
2090.000000, 79.649, -33.2665
2120.000000, 79.805, -33.0243
2140.000000, 79.910, -32.8832
2180.000000, 80.123, -32.6693
2200.000000, 80.231, -32.6071
2240.000000, 80.440, -32.5570
2270.000000, 80.592, -32.5897
2300.000000, 80.744, -32.6789
2330.000000, 80.893, -32.8138
2360.000000, 81.039, -32.9937
2400.000000, 81.229, -33.3276
2430.000000, 81.365, -33.6310
2470.000000, 81.538, -34.1317
2500.000000, 81.660, -34.5635
2540.000000, 81.811, -35.2094
2580.000000, 81.946, -35.9413
2620.000000, 82.064, -36.7507
2650.000000, 82.142, -37.3889
2690.000000, 82.232, -38.2707
2720.000000, 82.284, -38.9548
2760.000000, 82.334, -39.8886
2800.000000, 82.364, -40.8332
2850.000000, 82.373, -41.9835
2900.000000, 82.349, -43.0765
2950.000000, 82.293, -44.0742
3000.000000, 82.211, -44.9232
3040.000000, 82.130, -45.4943
3070.000000, 82.063, -45.8388
3110.000000, 81.972, -46.1702
3150.000000, 81.889, -46.3937
3200.000000, 81.796, -46.6013
3250.000000, 81.714, -46.8455
3300.000000, 81.625, -47.1645
3350.000000, 81.517, -47.4742
3400.000000, 81.390, -47.7009
3450.000000, 81.250, -47.8043
3500.000000, 81.104, -47.7930
3550.000000, 80.957, -47.6476
3600.000000, 80.810, -47.3756
3650.000000, 80.669, -46.9929
3700.000000, 80.535, -46.5110
3750.000000, 80.409, -45.9593
3820.000000, 80.251, -45.0775
3870.000000, 80.149, -44.3827
3950.000000, 80.004, -43.2236
4000.000000, 79.921, -42.4810
4060.000000, 79.836, -41.6261
4120.000000, 79.766, -40.7890
4180.000000, 79.700, -39.9758
4250.000000, 79.621, -39.0638
4310.000000, 79.552, -38.3443
4370.000000, 79.474, -37.6763
4440.000000, 79.361, -36.9403
4500.000000, 79.239, -36.2483
4550.000000, 79.113, -35.5576
4620.000000, 78.905, -34.2857
4680.000000, 78.716, -32.6911
4750.000000, 78.542, -30.0487
4820.000000, 78.513, -26.7507
4870.000000, 78.613, -24.3972
4940.000000, 78.891, -21.8301
5000.000000, 79.183, -20.5923
5080.000000, 79.533, -20.1140
5150.000000, 79.751, -20.3787
5220.000000, 79.886, -20.9291
5300.000000, 79.949, -21.6696
5380.000000, 79.929, -22.3579
5450.000000, 79.855, -22.8542
5520.000000, 79.735, -23.1891
5600.000000, 79.553, -23.3238
5700.000000, 79.270, -23.0677
5800.000000, 78.936, -22.2209
5900.000000, 78.587, -20.6393
6000.000000, 78.263, -18.3957
6080.000000, 78.030, -16.1831
6150.000000, 77.852, -13.9179
6220.000000, 77.707, -11.3423
6300.000000, 77.599, -8.0360
6400.000000, 77.584, -3.4574
6500.000000, 77.735, 1.4565
6600.000000, 78.082, 6.3228
6700.000000, 78.631, 10.5919
6800.000000, 79.347, 13.7949
6900.000000, 80.173, 15.5394
7000.000000, 81.025, 15.6975
7100.000000, 81.827, 14.3980
7200.000000, 82.539, 11.9117
7300.000000, 83.150, 8.4849
7400.000000, 83.660, 4.1817
7500.000000, 84.046, -1.0662
7620.000000, 84.272, -8.6667
7750.000000, 84.074, -17.9846
7880.000000, 83.299, -26.8706
8000.000000, 82.127, -32.9710
8120.000000, 80.723, -35.9358
8250.000000, 79.238, -35.7152
8380.000000, 78.002, -33.3735
8500.000000, 77.059, -30.6865
8620.000000, 76.178, -27.6969
8750.000000, 75.240, -23.5147
8850.000000, 74.568, -19.2635
9000.000000, 73.767, -11.1389
9120.000000, 73.411, -3.4705
9250.000000, 73.385, 5.2220
9380.000000, 73.753, 13.3415
9500.000000, 74.402, 19.4933
9620.000000, 75.280, 23.7214
9750.000000, 76.384, 25.5645
9880.000000, 77.443, 23.8744
10000.000000, 78.124, 19.5453
10150.000000, 78.371, 12.5353
10300.000000, 77.997, 6.4623
10440.000000, 77.311, 3.1055
10600.000000, 76.429, 2.1976
10750.000000, 75.696, 3.4966
10900.000000, 75.126, 6.0238
11060.000000, 74.705, 9.3501
11200.000000, 74.488, 12.4871
11380.000000, 74.408, 16.3840
11500.000000, 74.463, 18.5614
11720.000000, 74.665, 21.0166
11800.000000, 74.718, 21.4331
12060.000000, 74.749, 22.7498
12200.000000, 74.741, 23.6853
12410.000000, 74.949, 26.5286
12500.000000, 75.288, 27.2778
12650.000000, 75.813, 24.6416
12800.000000, 75.725, 20.1678
13150.000000, 74.689, 17.1916
13200.000000, 74.574, 17.3625
13400.000000, 74.271, 18.4084
13600.000000, 74.219, 19.1401
13800.000000, 74.359, 18.4264
14000.000000, 74.520, 15.3909
14300.000000, 74.252, 6.7936
14500.000000, 73.477, 0.4524
14750.000000, 71.895, -4.7490
15000.000000, 70.047, -5.2144
15250.000000, 68.383, -1.4566
15500.000000, 67.139, 4.8752
15750.000000, 66.396, 12.0484
16000.000000, 66.097, 18.2967
16250.000000, 66.078, 22.9899
16500.000000, 66.191, 25.5826
16750.000000, 66.250, 25.9866
17000.000000, 66.075, 24.9430
17250.000000, 65.579, 23.4459
17500.000000, 64.768, 22.9439
17750.000000, 63.782, 24.3871
18000.000000, 62.801, 28.4064
18250.000000, 62.286, 34.0824
18500.000000, 62.223, 35.7168
18750.000000, 61.977, 33.4542
19000.000000, 61.493, 28.6087
19250.000000, 60.712, 20.1173
19500.000000, 59.393, 7.8947
19750.000000, 57.429, -6.1812
