* Measurement data measured by REW V5.40 beta 98
* Source: Input device not selected, no input selected, L, volume: no control
* Format: 256k Log Swept Sine, 1 sweep at -11.0 dBFS with no timing reference
* Dated: Sep 3, 2025 1:07:42 AM
* REW Settings:
*  C-weighting compensation: Off
*  Target level: 75.0 dB
* Note: ; 
* Measurement: M-121i (TE Dbl Flg Wt) L
* Smoothing: 1/24 octave
* Frequency Step: 1/48 octave
* Start Frequency: 20.300 Hz
*
* Freq(Hz), SPL(dB), Phase(degrees)
20.299999, 80.741, 17.8614
20.600000, 80.749, 17.4163
20.900000, 80.758, 16.9144
21.200001, 80.765, 16.4020
21.400000, 80.770, 16.0553
21.799999, 80.780, 15.3536
22.000000, 80.784, 15.0033
22.400000, 80.790, 14.3178
22.700001, 80.794, 13.8251
23.000000, 80.798, 13.3528
23.299999, 80.802, 12.8979
23.600000, 80.806, 12.4545
24.000000, 80.811, 11.8715
24.299999, 80.814, 11.4358
24.700001, 80.816, 10.8544
25.000000, 80.817, 10.4178
25.400000, 80.817, 9.8358
25.799999, 80.816, 9.2579
26.200001, 80.814, 8.6934
26.500000, 80.812, 8.2867
26.900000, 80.810, 7.7742
27.200001, 80.810, 7.4111
27.600000, 80.812, 6.9436
28.000000, 80.814, 6.4742
28.500000, 80.815, 5.8607
29.000000, 80.808, 5.2257
29.500000, 80.795, 4.6084
30.000000, 80.781, 4.0367
30.400000, 80.774, 3.6046
30.700001, 80.770, 3.2836
31.100000, 80.763, 2.8510
31.500000, 80.751, 2.4169
32.000000, 80.727, 1.8961
32.500000, 80.701, 1.4144
33.000000, 80.681, 0.9455
33.500000, 80.667, 0.4460
34.000000, 80.649, -0.0838
34.500000, 80.623, -0.5846
35.000000, 80.595, -1.0032
35.500000, 80.575, -1.3645
36.000000, 80.566, -1.7542
36.500000, 80.557, -2.2244
37.000000, 80.536, -2.7318
37.500000, 80.505, -3.1920
38.200001, 80.470, -3.7361
38.700001, 80.457, -4.1421
39.500000, 80.438, -4.8955
40.000000, 80.417, -5.3417
40.599998, 80.392, -5.7963
41.200001, 80.372, -6.2291
41.799999, 80.347, -6.6833
42.500000, 80.307, -7.1698
43.099998, 80.277, -7.5289
43.700001, 80.250, -7.9053
44.400002, 80.209, -8.3816
45.000000, 80.166, -8.7441
45.500000, 80.138, -9.0049
46.200001, 80.114, -9.3927
46.799999, 80.091, -9.7680
47.500000, 80.053, -10.1844
48.200001, 80.021, -10.5899
48.700001, 80.004, -10.9306
49.400002, 79.977, -11.4489
50.000000, 79.945, -11.8101
50.799999, 79.901, -12.1443
51.500000, 79.866, -12.4651
52.200001, 79.827, -12.8625
53.000000, 79.789, -13.3021
53.799999, 79.759, -13.7020
54.500000, 79.723, -14.0153
55.200001, 79.681, -14.2845
56.000000, 79.639, -14.6333
57.000000, 79.586, -15.1224
58.000000, 79.546, -15.4920
59.000000, 79.516, -15.9983
60.000000, 79.445, -16.4818
60.799999, 79.385, -16.7189
61.500000, 79.344, -16.9406
62.200001, 79.309, -17.1877
63.000000, 79.272, -17.4332
64.000000, 79.219, -17.7132
65.000000, 79.159, -18.0677
66.000000, 79.110, -18.4992
67.000000, 79.067, -18.8549
68.000000, 79.019, -19.1774
69.000000, 78.962, -19.5119
70.000000, 78.913, -19.7723
71.000000, 78.873, -20.0406
72.000000, 78.826, -20.3291
73.000000, 78.776, -20.5955
74.000000, 78.719, -20.8383
75.000000, 78.669, -21.1192
76.199997, 78.618, -21.5130
77.500000, 78.558, -21.8164
78.800003, 78.501, -22.1537
80.000000, 78.443, -22.3709
81.199997, 78.382, -22.5219
82.500000, 78.319, -22.9156
83.800003, 78.258, -23.2491
85.000000, 78.200, -23.3921
86.199997, 78.149, -23.6066
87.500000, 78.091, -23.8441
88.500000, 78.047, -24.0230
90.000000, 77.985, -24.3362
91.199997, 77.934, -24.5258
92.500000, 77.873, -24.7330
93.800003, 77.816, -24.9412
95.000000, 77.767, -25.1147
96.199997, 77.710, -25.2894
97.500000, 77.650, -25.4584
98.800003, 77.602, -25.6402
100.000000, 77.566, -25.8400
101.500000, 77.515, -26.0335
103.000000, 77.451, -26.1549
104.400002, 77.395, -26.3062
106.000000, 77.331, -26.4966
107.500000, 77.273, -26.6556
109.000000, 77.216, -26.8154
110.599998, 77.151, -27.0393
112.000000, 77.095, -27.1711
113.800003, 77.033, -27.2347
115.000000, 76.998, -27.3162
117.199997, 76.931, -27.4908
118.000000, 76.906, -27.5544
120.599998, 76.821, -27.7294
122.000000, 76.774, -27.8303
124.099998, 76.705, -27.9649
125.000000, 76.675, -28.0194
126.500000, 76.624, -28.1120
128.000000, 76.576, -28.2177
131.500000, 76.472, -28.4258
132.000000, 76.458, -28.4428
134.000000, 76.404, -28.4832
136.000000, 76.348, -28.6066
138.000000, 76.293, -28.7329
140.000000, 76.235, -28.8163
143.000000, 76.153, -28.9127
145.000000, 76.104, -28.9595
147.500000, 76.038, -29.0370
150.000000, 75.977, -29.1428
152.500000, 75.921, -29.2509
155.000000, 75.867, -29.3042
157.500000, 75.812, -29.3474
160.000000, 75.758, -29.4154
162.500000, 75.705, -29.4935
165.000000, 75.652, -29.5422
167.500000, 75.598, -29.5728
170.000000, 75.547, -29.5911
172.500000, 75.501, -29.6496
175.000000, 75.455, -29.7128
177.500000, 75.411, -29.7217
180.000000, 75.365, -29.7284
182.500000, 75.322, -29.7861
185.000000, 75.282, -29.8133
187.500000, 75.238, -29.8190
190.000000, 75.197, -29.8458
192.500000, 75.160, -29.8850
195.000000, 75.125, -29.9086
197.500000, 75.088, -29.9157
200.000000, 75.052, -29.9221
203.000000, 75.011, -29.9248
206.000000, 74.973, -29.9347
209.000000, 74.938, -29.9637
212.000000, 74.900, -29.9899
214.000000, 74.875, -29.9866
218.000000, 74.833, -29.9840
220.000000, 74.811, -29.9864
224.000000, 74.765, -30.0313
227.000000, 74.733, -30.0722
230.000000, 74.703, -30.0882
233.000000, 74.672, -30.0916
236.000000, 74.644, -30.0939
240.000000, 74.607, -30.0972
243.000000, 74.584, -30.1142
247.000000, 74.554, -30.1258
250.000000, 74.532, -30.1259
254.000000, 74.502, -30.1341
258.000000, 74.474, -30.1774
262.000000, 74.449, -30.1804
265.000000, 74.428, -30.1676
269.000000, 74.402, -30.1710
272.000000, 74.384, -30.1895
276.000000, 74.360, -30.2060
280.000000, 74.339, -30.1872
285.000000, 74.315, -30.1541
290.000000, 74.290, -30.1571
295.000000, 74.266, -30.1551
300.000000, 74.252, -30.1221
304.000000, 74.243, -30.0769
307.000000, 74.236, -30.0446
311.000000, 74.232, -29.9902
315.000000, 74.233, -29.9401
320.000000, 74.241, -29.9141
325.000000, 74.254, -29.9407
330.000000, 74.269, -30.0288
335.000000, 74.282, -30.1474
340.000000, 74.288, -30.2742
345.000000, 74.286, -30.3929
350.000000, 74.285, -30.5154
355.000000, 74.285, -30.6323
360.000000, 74.286, -30.7300
365.000000, 74.289, -30.8158
370.000000, 74.291, -30.9121
375.000000, 74.292, -31.0057
382.000000, 74.295, -31.1347
387.000000, 74.299, -31.2287
395.000000, 74.310, -31.3419
400.000000, 74.316, -31.4214
406.000000, 74.323, -31.5301
412.000000, 74.334, -31.6370
418.000000, 74.344, -31.7560
425.000000, 74.356, -31.8852
431.000000, 74.370, -31.9995
437.000000, 74.386, -32.1132
444.000000, 74.404, -32.2555
450.000000, 74.418, -32.3797
455.000000, 74.429, -32.4915
462.000000, 74.448, -32.6521
468.000000, 74.465, -32.7835
475.000000, 74.485, -32.9396
482.000000, 74.503, -33.1051
487.000000, 74.515, -33.2362
494.000000, 74.534, -33.4153
500.000000, 74.550, -33.5589
508.000000, 74.570, -33.7623
515.000000, 74.588, -33.9558
522.000000, 74.607, -34.1475
530.000000, 74.627, -34.3468
538.000000, 74.647, -34.5417
545.000000, 74.664, -34.7225
552.000000, 74.680, -34.9083
560.000000, 74.696, -35.1142
570.000000, 74.718, -35.3555
580.000000, 74.738, -35.5987
590.000000, 74.754, -35.8602
600.000000, 74.767, -36.1166
608.000000, 74.778, -36.3007
615.000000, 74.787, -36.4520
622.000000, 74.795, -36.6076
630.000000, 74.802, -36.7743
640.000000, 74.810, -36.9701
650.000000, 74.816, -37.1469
660.000000, 74.821, -37.3090
670.000000, 74.823, -37.4580
680.000000, 74.825, -37.5879
690.000000, 74.824, -37.6982
700.000000, 74.823, -37.7896
710.000000, 74.822, -37.8623
720.000000, 74.820, -37.9011
730.000000, 74.818, -37.9097
740.000000, 74.816, -37.9093
750.000000, 74.813, -37.8742
762.000000, 74.810, -37.7991
775.000000, 74.807, -37.6920
788.000000, 74.807, -37.5351
800.000000, 74.811, -37.3638
812.000000, 74.816, -37.1635
825.000000, 74.825, -36.9074
838.000000, 74.837, -36.6049
850.000000, 74.851, -36.2884
862.000000, 74.871, -35.9684
875.000000, 74.898, -35.6013
885.000000, 74.924, -35.3044
900.000000, 74.965, -34.8344
912.000000, 75.003, -34.4530
925.000000, 75.050, -34.0412
938.000000, 75.102, -33.6293
950.000000, 75.154, -33.2359
962.000000, 75.210, -32.8395
975.000000, 75.275, -32.4304
988.000000, 75.342, -32.0303
1000.000000, 75.408, -31.6727
1015.000000, 75.498, -31.2330
1030.000000, 75.593, -30.8138
1044.000000, 75.686, -30.4347
1060.000000, 75.800, -30.0254
1075.000000, 75.913, -29.6962
1090.000000, 76.027, -29.4231
1106.000000, 76.147, -29.1860
1120.000000, 76.252, -29.0224
1138.000000, 76.385, -28.8510
1150.000000, 76.471, -28.7678
1172.000000, 76.627, -28.6603
1180.000000, 76.682, -28.6375
1206.000000, 76.853, -28.6198
1220.000000, 76.942, -28.6360
1241.000000, 77.066, -28.6825
1250.000000, 77.118, -28.7083
1265.000000, 77.201, -28.7620
1280.000000, 77.278, -28.8220
1315.000000, 77.444, -28.9742
1320.000000, 77.466, -28.9944
1340.000000, 77.552, -29.0730
1360.000000, 77.630, -29.1513
1380.000000, 77.703, -29.2136
1400.000000, 77.771, -29.2679
1430.000000, 77.865, -29.3254
1450.000000, 77.923, -29.3418
1475.000000, 77.990, -29.3361
1500.000000, 78.049, -29.3067
1525.000000, 78.102, -29.2422
1550.000000, 78.149, -29.1547
1575.000000, 78.191, -29.0329
1600.000000, 78.225, -28.8598
1625.000000, 78.253, -28.6251
1650.000000, 78.279, -28.3095
1675.000000, 78.305, -27.9113
1700.000000, 78.331, -27.4253
1725.000000, 78.365, -26.8461
1750.000000, 78.409, -26.2012
1775.000000, 78.466, -25.5124
1800.000000, 78.535, -24.7820
1825.000000, 78.618, -24.0543
1850.000000, 78.714, -23.3597
1875.000000, 78.819, -22.6884
1900.000000, 78.934, -22.0498
1925.000000, 79.058, -21.4598
1950.000000, 79.188, -20.9181
1975.000000, 79.324, -20.4205
2000.000000, 79.465, -19.9783
2030.000000, 79.636, -19.5341
2060.000000, 79.809, -19.1944
2090.000000, 79.982, -18.9303
2120.000000, 80.151, -18.7312
2140.000000, 80.261, -18.6318
2180.000000, 80.478, -18.4965
2200.000000, 80.586, -18.4582
2240.000000, 80.796, -18.4442
2270.000000, 80.950, -18.4841
2300.000000, 81.102, -18.5743
2330.000000, 81.251, -18.7169
2360.000000, 81.397, -18.9060
2400.000000, 81.586, -19.2182
2430.000000, 81.723, -19.5047
2470.000000, 81.899, -19.9747
2500.000000, 82.023, -20.3885
2540.000000, 82.179, -21.0075
2580.000000, 82.321, -21.7024
2620.000000, 82.450, -22.4614
2650.000000, 82.537, -23.0665
2690.000000, 82.639, -23.9223
2720.000000, 82.705, -24.5976
2760.000000, 82.777, -25.5269
2800.000000, 82.830, -26.4837
2850.000000, 82.870, -27.6961
2900.000000, 82.881, -28.9054
2950.000000, 82.864, -30.0772
3000.000000, 82.821, -31.1888
3040.000000, 82.770, -32.0159
3070.000000, 82.721, -32.5953
3110.000000, 82.646, -33.3085
3150.000000, 82.561, -33.9439
3200.000000, 82.444, -34.6302
3250.000000, 82.319, -35.2010
3300.000000, 82.188, -35.6611
3350.000000, 82.055, -36.0178
3400.000000, 81.922, -36.2893
3450.000000, 81.790, -36.4850
3500.000000, 81.661, -36.6116
3550.000000, 81.537, -36.6868
3600.000000, 81.414, -36.7375
3650.000000, 81.293, -36.7830
3700.000000, 81.172, -36.8272
3750.000000, 81.047, -36.8838
3820.000000, 80.856, -36.9678
3870.000000, 80.702, -37.0094
3950.000000, 80.417, -36.8770
4000.000000, 80.222, -36.5544
4060.000000, 79.996, -35.8687
4120.000000, 79.802, -34.9546
4180.000000, 79.646, -33.9897
4250.000000, 79.495, -32.9820
4310.000000, 79.370, -32.2414
4370.000000, 79.234, -31.5788
4440.000000, 79.051, -30.8010
4500.000000, 78.872, -30.0217
4550.000000, 78.708, -29.2213
4620.000000, 78.467, -27.7394
4680.000000, 78.271, -25.9922
4750.000000, 78.111, -23.3263
4820.000000, 78.098, -20.2573
4870.000000, 78.201, -18.2114
4940.000000, 78.462, -16.1617
5000.000000, 78.724, -15.3738
5080.000000, 79.017, -15.4993
5150.000000, 79.172, -16.2793
5220.000000, 79.228, -17.3237
5300.000000, 79.185, -18.5763
5380.000000, 79.046, -19.7071
5450.000000, 78.862, -20.5135
5520.000000, 78.631, -21.0946
5600.000000, 78.319, -21.4241
5700.000000, 77.878, -21.2887
5800.000000, 77.401, -20.5047
5900.000000, 76.910, -19.0228
6000.000000, 76.433, -16.7952
6080.000000, 76.086, -14.5153
6150.000000, 75.815, -12.1996
6220.000000, 75.581, -9.5903
6300.000000, 75.372, -6.2556
6400.000000, 75.225, -1.6734
6500.000000, 75.236, 3.1527
6600.000000, 75.432, 7.8640
6700.000000, 75.812, 12.0074
6800.000000, 76.343, 15.1239
6900.000000, 76.956, 16.8595
7000.000000, 77.567, 17.1298
7100.000000, 78.104, 16.1347
7200.000000, 78.525, 14.2305
7300.000000, 78.819, 11.7605
7400.000000, 78.997, 8.9821
7500.000000, 79.079, 6.0070
7620.000000, 79.056, 2.1263
7750.000000, 78.851, -2.4987
7880.000000, 78.393, -7.2461
8000.000000, 77.716, -11.0609
8120.000000, 76.843, -13.5701
8250.000000, 75.824, -14.4551
8380.000000, 74.864, -14.0612
8500.000000, 74.008, -13.3505
8620.000000, 73.087, -12.2798
8750.000000, 71.985, -9.9142
8850.000000, 71.106, -6.7934
9000.000000, 69.870, 0.2063
9120.000000, 69.057, 7.6463
9250.000000, 68.437, 17.1182
9380.000000, 68.146, 27.5205
9500.000000, 68.189, 37.4251
9620.000000, 68.535, 47.2365
9750.000000, 69.274, 57.4208
9880.000000, 70.389, 66.2705
10000.000000, 71.677, 72.6372
10150.000000, 73.552, 77.8587
10300.000000, 75.628, 79.4325
10440.000000, 77.576, 76.9323
10600.000000, 79.501, 69.1999
10750.000000, 80.692, 58.3994
10900.000000, 81.143, 46.6032
11060.000000, 80.956, 35.6557
11200.000000, 80.503, 28.5426
11380.000000, 79.894, 22.3522
11500.000000, 79.583, 19.2482
11720.000000, 79.190, 13.5554
11800.000000, 79.040, 11.2159
12060.000000, 78.317, 3.8038
12200.000000, 77.816, 0.3707
12410.000000, 77.060, -2.4589
12500.000000, 76.968, -3.1754
12650.000000, 76.955, -7.3699
12800.000000, 76.446, -13.9158
13150.000000, 74.169, -21.5704
13200.000000, 73.869, -21.9883
13400.000000, 72.810, -23.2394
13600.000000, 71.918, -24.5484
13800.000000, 71.086, -26.5071
14000.000000, 70.193, -29.1423
14300.000000, 68.554, -33.3053
14500.000000, 67.239, -35.2419
14750.000000, 65.420, -35.7244
15000.000000, 63.570, -33.5550
15250.000000, 61.879, -29.0528
15500.000000, 60.460, -22.7969
15750.000000, 59.395, -15.6756
16000.000000, 58.671, -8.9447
16250.000000, 58.218, -3.1418
16500.000000, 57.934, 1.3559
16750.000000, 57.682, 4.2800
17000.000000, 57.335, 5.8776
17250.000000, 56.784, 6.5373
17500.000000, 55.949, 7.0964
17750.000000, 54.811, 8.8665
18000.000000, 53.459, 13.4114
18250.000000, 52.337, 22.2581
18500.000000, 51.867, 29.5597
18750.000000, 51.477, 32.6983
19000.000000, 50.943, 33.7636
19250.000000, 50.240, 32.6439
19500.000000, 49.307, 29.1739
19750.000000, 48.234, 23.7664
