* Measurement data measured by REW V5.31.3
* Source: Input device not selected, no input selected, L, volume: no control
* Format: 256k Log Swept Sine, 1 sweep at -12.0 dBFS with no timing reference
* Dated: Dec 6, 2024 4:47:35 PM
* REW Settings:
*  C-weighting compensation: Off
*  Target level: 75.0 dB
* Note: ; 
* Measurement: M-121i (10ohm, BGVP Foam)
* Smoothing: 1/24 octave
* Frequency Step: 1/48 octave
* Start Frequency: 20.300 Hz
*
* Freq(Hz), SPL(dB), Phase(degrees)
20.299999, 82.762, 16.7492
20.600000, 82.785, 16.2770
20.900000, 82.807, 15.6697
21.200001, 82.820, 15.0027
21.400000, 82.822, 14.5540
21.799999, 82.816, 13.7168
22.000000, 82.809, 13.3481
22.400000, 82.799, 12.7127
22.700001, 82.797, 12.2942
23.000000, 82.801, 11.8840
23.299999, 82.808, 11.4509
23.600000, 82.815, 10.9814
24.000000, 82.823, 10.3115
24.299999, 82.826, 9.8020
24.700001, 82.829, 9.1533
25.000000, 82.832, 8.7039
25.400000, 82.841, 8.1486
25.799999, 82.852, 7.6159
26.200001, 82.863, 7.0767
26.500000, 82.867, 6.6614
26.900000, 82.866, 6.1006
27.200001, 82.862, 5.6823
27.600000, 82.856, 5.1310
28.000000, 82.852, 4.5767
28.500000, 82.847, 3.8584
29.000000, 82.832, 3.1232
29.500000, 82.806, 2.4245
30.000000, 82.778, 1.7985
30.400000, 82.763, 1.3302
30.700001, 82.757, 0.9764
31.100000, 82.751, 0.4890
31.500000, 82.741, 0.0008
32.000000, 82.721, -0.5521
32.500000, 82.700, -1.0111
33.000000, 82.688, -1.4426
33.500000, 82.683, -1.9536
34.000000, 82.670, -2.5734
34.500000, 82.639, -3.2241
35.000000, 82.596, -3.8118
35.500000, 82.552, -4.3148
36.000000, 82.517, -4.7724
36.500000, 82.491, -5.2102
37.000000, 82.473, -5.6105
37.500000, 82.467, -5.9617
38.200001, 82.472, -6.4500
38.700001, 82.471, -6.8632
39.500000, 82.437, -7.6024
40.000000, 82.403, -8.0363
40.599998, 82.364, -8.5094
41.200001, 82.331, -8.9769
41.799999, 82.294, -9.4623
42.500000, 82.244, -10.0293
43.099998, 82.207, -10.5143
43.700001, 82.181, -11.0103
44.400002, 82.155, -11.5641
45.000000, 82.128, -11.9754
45.500000, 82.100, -12.2936
46.200001, 82.058, -12.7854
46.799999, 82.021, -13.2639
47.500000, 81.980, -13.7833
48.200001, 81.946, -14.1580
48.700001, 81.925, -14.3591
49.400002, 81.894, -14.6619
50.000000, 81.865, -15.0137
50.799999, 81.823, -15.5705
51.500000, 81.786, -15.9926
52.200001, 81.752, -16.2919
53.000000, 81.712, -16.6165
53.799999, 81.663, -17.0746
54.500000, 81.615, -17.5491
55.200001, 81.572, -18.0047
56.000000, 81.527, -18.4683
57.000000, 81.461, -18.9453
58.000000, 81.410, -19.3565
59.000000, 81.381, -19.9246
60.000000, 81.319, -20.4421
60.799999, 81.262, -20.6421
61.500000, 81.226, -20.8374
62.200001, 81.198, -21.1711
63.000000, 81.160, -21.6200
64.000000, 81.111, -22.1002
65.000000, 81.054, -22.5467
66.000000, 80.984, -22.9557
67.000000, 80.923, -23.2522
68.000000, 80.875, -23.5380
69.000000, 80.824, -23.8867
70.000000, 80.764, -24.1964
71.000000, 80.704, -24.4073
72.000000, 80.651, -24.6715
73.000000, 80.591, -25.1065
74.000000, 80.529, -25.5663
75.000000, 80.483, -25.9229
76.199997, 80.438, -26.2244
77.500000, 80.373, -26.5665
78.800003, 80.295, -26.9903
80.000000, 80.230, -27.2745
81.199997, 80.171, -27.5369
82.500000, 80.105, -27.8951
83.800003, 80.025, -28.2040
85.000000, 79.948, -28.5350
86.199997, 79.891, -28.8320
87.500000, 79.843, -29.0078
88.500000, 79.794, -29.2232
90.000000, 79.720, -29.6198
91.199997, 79.668, -29.7590
92.500000, 79.607, -29.9103
93.800003, 79.538, -30.1054
95.000000, 79.482, -30.3372
96.199997, 79.429, -30.6248
97.500000, 79.369, -30.8818
98.800003, 79.311, -31.1294
100.000000, 79.264, -31.3649
101.500000, 79.207, -31.5979
103.000000, 79.142, -31.8104
104.400002, 79.082, -31.9992
106.000000, 79.008, -32.2199
107.500000, 78.936, -32.4083
109.000000, 78.874, -32.6076
110.599998, 78.814, -32.8190
112.000000, 78.763, -32.9868
113.800003, 78.701, -33.1807
115.000000, 78.658, -33.3192
117.199997, 78.567, -33.5864
118.000000, 78.534, -33.6667
120.599998, 78.436, -33.9483
122.000000, 78.385, -34.0961
124.099998, 78.310, -34.3112
125.000000, 78.278, -34.3734
126.500000, 78.225, -34.4808
128.000000, 78.172, -34.6645
131.500000, 78.054, -35.0220
132.000000, 78.038, -35.0548
134.000000, 77.975, -35.1406
136.000000, 77.920, -35.2755
138.000000, 77.856, -35.4120
140.000000, 77.797, -35.5848
143.000000, 77.708, -35.7227
145.000000, 77.646, -35.8753
147.500000, 77.573, -36.0938
150.000000, 77.495, -36.2195
152.500000, 77.420, -36.3945
155.000000, 77.358, -36.5252
157.500000, 77.295, -36.6416
160.000000, 77.232, -36.7176
162.500000, 77.166, -36.7831
165.000000, 77.093, -36.9546
167.500000, 77.027, -37.1360
170.000000, 76.985, -37.1884
172.500000, 76.942, -37.2400
175.000000, 76.883, -37.3627
177.500000, 76.820, -37.4926
180.000000, 76.759, -37.5540
182.500000, 76.708, -37.6271
185.000000, 76.665, -37.7574
187.500000, 76.619, -37.8078
190.000000, 76.567, -37.8356
192.500000, 76.521, -37.9433
195.000000, 76.484, -38.0567
197.500000, 76.445, -38.1756
200.000000, 76.402, -38.2310
203.000000, 76.337, -38.3124
206.000000, 76.277, -38.4016
209.000000, 76.232, -38.4397
212.000000, 76.188, -38.4772
214.000000, 76.158, -38.5419
218.000000, 76.099, -38.7056
220.000000, 76.071, -38.7865
224.000000, 76.003, -39.0104
227.000000, 75.959, -39.1148
230.000000, 75.927, -39.1193
233.000000, 75.888, -39.1071
236.000000, 75.849, -39.1376
240.000000, 75.798, -39.2410
243.000000, 75.753, -39.3423
247.000000, 75.690, -39.5251
250.000000, 75.665, -39.6042
254.000000, 75.637, -39.5491
258.000000, 75.593, -39.5755
262.000000, 75.558, -39.6324
265.000000, 75.536, -39.6985
269.000000, 75.502, -39.8368
272.000000, 75.478, -39.9396
276.000000, 75.447, -40.0267
280.000000, 75.412, -40.1021
285.000000, 75.373, -40.1756
290.000000, 75.340, -40.1904
295.000000, 75.297, -40.2948
300.000000, 75.254, -40.3362
304.000000, 75.233, -40.4517
307.000000, 75.219, -40.5382
311.000000, 75.196, -40.6562
315.000000, 75.174, -40.7727
320.000000, 75.150, -40.8440
325.000000, 75.126, -40.8809
330.000000, 75.101, -41.0134
335.000000, 75.075, -41.1453
340.000000, 75.049, -41.2968
345.000000, 75.025, -41.3918
350.000000, 75.008, -41.4242
355.000000, 74.994, -41.4993
360.000000, 74.980, -41.6153
365.000000, 74.967, -41.7887
370.000000, 74.946, -41.9142
375.000000, 74.928, -41.9842
382.000000, 74.916, -42.1159
387.000000, 74.912, -42.2720
395.000000, 74.901, -42.4858
400.000000, 74.891, -42.6397
406.000000, 74.884, -42.7448
412.000000, 74.878, -42.8468
418.000000, 74.868, -43.0363
425.000000, 74.861, -43.2341
431.000000, 74.852, -43.3426
437.000000, 74.847, -43.4197
444.000000, 74.844, -43.6056
450.000000, 74.845, -43.7978
455.000000, 74.849, -43.9344
462.000000, 74.847, -44.1296
468.000000, 74.845, -44.2720
475.000000, 74.845, -44.4637
482.000000, 74.845, -44.6288
487.000000, 74.844, -44.7640
494.000000, 74.839, -45.0003
500.000000, 74.839, -45.2191
508.000000, 74.841, -45.4612
515.000000, 74.838, -45.6077
522.000000, 74.841, -45.7457
530.000000, 74.843, -45.9975
538.000000, 74.841, -46.2584
545.000000, 74.836, -46.4739
552.000000, 74.829, -46.7115
560.000000, 74.825, -46.9558
570.000000, 74.820, -47.2477
580.000000, 74.816, -47.4986
590.000000, 74.818, -47.7667
600.000000, 74.815, -48.0295
608.000000, 74.812, -48.2338
615.000000, 74.808, -48.3923
622.000000, 74.797, -48.5628
630.000000, 74.787, -48.7642
640.000000, 74.779, -48.9753
650.000000, 74.764, -49.1776
660.000000, 74.749, -49.3659
670.000000, 74.733, -49.5496
680.000000, 74.720, -49.6613
690.000000, 74.709, -49.7488
700.000000, 74.688, -49.8453
710.000000, 74.663, -49.8818
720.000000, 74.645, -49.9038
730.000000, 74.630, -49.9787
740.000000, 74.606, -49.9978
750.000000, 74.582, -49.9395
762.000000, 74.562, -49.8405
775.000000, 74.539, -49.7528
788.000000, 74.520, -49.5921
800.000000, 74.508, -49.3928
812.000000, 74.498, -49.1928
825.000000, 74.490, -48.9317
838.000000, 74.488, -48.6411
850.000000, 74.495, -48.3613
862.000000, 74.506, -48.0424
875.000000, 74.509, -47.6655
885.000000, 74.517, -47.3648
900.000000, 74.538, -46.9213
912.000000, 74.563, -46.5468
925.000000, 74.597, -46.1536
938.000000, 74.636, -45.7499
950.000000, 74.677, -45.3604
962.000000, 74.727, -44.9954
975.000000, 74.784, -44.6235
988.000000, 74.836, -44.2612
1000.000000, 74.890, -43.9517
1015.000000, 74.973, -43.5543
1030.000000, 75.053, -43.1812
1044.000000, 75.119, -42.8499
1060.000000, 75.200, -42.4663
1075.000000, 75.287, -42.1045
1090.000000, 75.378, -41.8088
1106.000000, 75.472, -41.5907
1120.000000, 75.561, -41.3927
1138.000000, 75.676, -41.1642
1150.000000, 75.749, -41.0519
1172.000000, 75.877, -40.8995
1180.000000, 75.924, -40.8564
1206.000000, 76.070, -40.7373
1220.000000, 76.144, -40.6955
1241.000000, 76.247, -40.6224
1250.000000, 76.290, -40.5964
1265.000000, 76.360, -40.5965
1280.000000, 76.427, -40.5870
1315.000000, 76.567, -40.5563
1320.000000, 76.585, -40.5574
1340.000000, 76.658, -40.5200
1360.000000, 76.731, -40.4637
1380.000000, 76.802, -40.4032
1400.000000, 76.863, -40.3235
1430.000000, 76.949, -40.1577
1450.000000, 77.004, -40.0536
1475.000000, 77.076, -39.9132
1500.000000, 77.141, -39.7551
1525.000000, 77.201, -39.5585
1550.000000, 77.259, -39.3605
1575.000000, 77.315, -39.1394
1600.000000, 77.367, -38.8638
1625.000000, 77.414, -38.5556
1650.000000, 77.461, -38.1901
1675.000000, 77.508, -37.7719
1700.000000, 77.556, -37.2710
1725.000000, 77.606, -36.7039
1750.000000, 77.665, -36.0699
1775.000000, 77.734, -35.4134
1800.000000, 77.812, -34.7555
1825.000000, 77.901, -34.0728
1850.000000, 78.005, -33.4078
1875.000000, 78.122, -32.7696
1900.000000, 78.246, -32.1480
1925.000000, 78.379, -31.5719
1950.000000, 78.514, -31.0552
1975.000000, 78.649, -30.5743
2000.000000, 78.791, -30.1472
2030.000000, 78.967, -29.7241
2060.000000, 79.144, -29.3486
2090.000000, 79.317, -29.0439
2120.000000, 79.490, -28.7847
2140.000000, 79.609, -28.6463
2180.000000, 79.850, -28.4749
2200.000000, 79.970, -28.4249
2240.000000, 80.205, -28.3659
2270.000000, 80.378, -28.3815
2300.000000, 80.551, -28.4812
2330.000000, 80.721, -28.6278
2360.000000, 80.886, -28.8343
2400.000000, 81.099, -29.2384
2430.000000, 81.253, -29.6040
2470.000000, 81.450, -30.1666
2500.000000, 81.591, -30.6540
2540.000000, 81.765, -31.3921
2580.000000, 81.924, -32.2308
2620.000000, 82.067, -33.1333
2650.000000, 82.161, -33.8521
2690.000000, 82.267, -34.8575
2720.000000, 82.335, -35.6429
2760.000000, 82.408, -36.7144
2800.000000, 82.457, -37.7964
2850.000000, 82.484, -39.1332
2900.000000, 82.479, -40.4473
2950.000000, 82.446, -41.7087
3000.000000, 82.381, -42.9109
3040.000000, 82.310, -43.7750
3070.000000, 82.249, -44.3567
3110.000000, 82.158, -45.0600
3150.000000, 82.054, -45.6806
3200.000000, 81.911, -46.3168
3250.000000, 81.759, -46.8047
3300.000000, 81.600, -47.1541
3350.000000, 81.438, -47.3461
3400.000000, 81.279, -47.3887
3450.000000, 81.119, -47.3102
3500.000000, 80.966, -47.1260
3550.000000, 80.819, -46.8364
3600.000000, 80.676, -46.4544
3650.000000, 80.542, -46.0147
3700.000000, 80.415, -45.4691
3750.000000, 80.299, -44.8712
3820.000000, 80.149, -43.9952
3870.000000, 80.050, -43.3204
3950.000000, 79.912, -42.1578
4000.000000, 79.836, -41.4353
4060.000000, 79.752, -40.5878
4120.000000, 79.680, -39.7167
4180.000000, 79.615, -38.8494
4250.000000, 79.539, -37.9070
4310.000000, 79.469, -37.1451
4370.000000, 79.394, -36.3860
4440.000000, 79.298, -35.4988
4500.000000, 79.195, -34.6877
4550.000000, 79.092, -33.8763
4620.000000, 78.933, -32.4015
4680.000000, 78.806, -30.7115
4750.000000, 78.726, -28.1367
4820.000000, 78.795, -25.1948
4870.000000, 78.954, -23.2858
4940.000000, 79.278, -21.4684
5000.000000, 79.571, -20.8526
5080.000000, 79.887, -21.0445
5150.000000, 80.062, -21.7361
5220.000000, 80.147, -22.6094
5300.000000, 80.150, -23.6006
5380.000000, 80.076, -24.4514
5450.000000, 79.957, -25.0271
5520.000000, 79.796, -25.4517
5600.000000, 79.568, -25.6830
5700.000000, 79.237, -25.5011
5800.000000, 78.871, -24.7144
5900.000000, 78.483, -23.2115
6000.000000, 78.122, -20.9946
6080.000000, 77.864, -18.7584
6150.000000, 77.669, -16.4788
6220.000000, 77.511, -13.8998
6300.000000, 77.394, -10.6069
6400.000000, 77.372, -6.0687
6500.000000, 77.525, -1.3402
6600.000000, 77.877, 3.1372
6700.000000, 78.413, 6.8799
6800.000000, 79.091, 9.3876
6900.000000, 79.828, 10.3497
7000.000000, 80.540, 9.8096
7100.000000, 81.157, 8.0470
7200.000000, 81.647, 5.4104
7300.000000, 82.007, 2.2249
7400.000000, 82.247, -1.3559
7500.000000, 82.374, -5.2702
7620.000000, 82.360, -10.3625
7750.000000, 82.083, -16.1586
7880.000000, 81.484, -21.4971
8000.000000, 80.673, -25.0879
8120.000000, 79.743, -26.7434
8250.000000, 78.790, -26.5877
8380.000000, 77.977, -25.5296
8500.000000, 77.269, -24.3958
8620.000000, 76.523, -22.7094
8750.000000, 75.710, -19.5268
8850.000000, 75.155, -15.9811
9000.000000, 74.577, -9.1838
9120.000000, 74.416, -3.1612
9250.000000, 74.577, 3.0439
9380.000000, 75.057, 7.8841
9500.000000, 75.674, 10.3775
9620.000000, 76.316, 10.6593
9750.000000, 76.883, 8.6605
9880.000000, 77.180, 4.9485
10000.000000, 77.136, 0.9913
10150.000000, 76.690, -3.1768
10300.000000, 75.983, -5.4216
10440.000000, 75.263, -5.6878
10600.000000, 74.508, -4.3163
10750.000000, 73.923, -1.9903
10900.000000, 73.475, 0.9041
11060.000000, 73.132, 4.2438
11200.000000, 72.942, 7.1022
11380.000000, 72.828, 10.3812
11500.000000, 72.824, 12.1158
11720.000000, 72.837, 13.7874
11800.000000, 72.799, 14.0160
12060.000000, 72.486, 15.2365
12200.000000, 72.291, 16.3398
12410.000000, 72.119, 19.3962
12500.000000, 72.244, 20.7250
12650.000000, 72.550, 19.9289
12800.000000, 72.361, 16.7068
13150.000000, 70.816, 16.3731
13200.000000, 70.607, 17.1018
13400.000000, 69.905, 20.9761
13600.000000, 69.430, 25.7060
13800.000000, 69.172, 30.7625
14000.000000, 69.153, 35.7791
14300.000000, 69.559, 41.8884
14500.000000, 70.058, 44.1532
14750.000000, 70.741, 44.1886
15000.000000, 71.225, 41.1586
15250.000000, 71.315, 36.7418
15500.000000, 71.062, 32.8947
15750.000000, 70.695, 30.5133
16000.000000, 70.391, 28.8970
16250.000000, 70.188, 26.9547
16500.000000, 69.998, 23.8364
16750.000000, 69.667, 19.5715
17000.000000, 69.060, 14.6311
17250.000000, 68.118, 10.1760
17500.000000, 66.882, 7.2373
17750.000000, 65.455, 6.4478
18000.000000, 63.996, 8.1808
18250.000000, 62.872, 11.8369
18500.000000, 62.172, 12.6574
18750.000000, 61.216, 9.7586
19000.000000, 59.912, 5.6721
19250.000000, 58.305, -0.3207
19500.000000, 56.260, -8.6057
19750.000000, 53.846, -17.7372
