* Exported with UsyTrace, available at https://usyless.uk/trace
* Freq(Hz)	SPL(dB)
20.000000	96.484916
20.290907	96.484916
20.586045	96.484916
20.885476	96.534197
21.189262	96.617550
21.497467	96.702116
21.810155	96.787912
22.127391	96.874097
22.449241	96.960805
22.775773	97.048774
23.107054	97.093343
23.443154	97.134487
23.784142	97.176229
24.130091	97.218578
24.481071	97.261543
24.837156	97.305133
25.198421	97.349357
25.564940	97.394224
25.936791	97.439744
26.314050	97.485926
26.696797	97.536045
27.085111	97.591470
27.479073	97.647701
27.878765	97.704749
28.284271	97.762415
28.695675	97.820542
29.113064	97.879515
29.536523	97.939345
29.966142	98.000046
30.402009	98.061629
30.844217	98.102998
31.292856	98.132751
31.748021	98.162937
32.209807	98.193562
32.678309	98.224632
33.153626	98.256154
33.635857	98.288135
34.125101	98.314557
34.621462	98.321953
35.125043	98.329457
35.635949	98.337071
36.154286	98.344795
36.680162	98.352631
37.213687	98.360581
37.754973	98.368647
38.304131	98.376831
38.861278	98.385133
39.426528	98.393556
40.000000	98.402102
40.581813	98.410772
41.172089	98.419568
41.770951	98.427843
42.378524	98.432807
42.994934	98.437844
43.620309	98.442954
44.254781	98.448139
44.898482	98.453398
45.551545	98.458735
46.214108	98.464149
46.886308	98.469641
47.568285	98.475214
48.260181	98.480868
48.962142	98.486603
49.674312	98.492423
50.396842	98.498327
51.129881	98.504316
51.873582	98.510393
52.628101	98.516559
53.393594	98.522814
54.170222	98.529160
54.958146	98.535598
55.757531	98.542130
56.568542	98.548757
57.391351	98.555480
58.226127	98.562301
59.073046	98.569222
59.932283	98.576243
60.804018	98.583366
61.688433	98.590593
62.585712	98.597925
63.496042	98.605363
64.419613	98.612910
65.356618	98.620566
66.307252	98.628334
67.271713	98.636215
68.250203	98.644210
69.242925	98.652322
70.250086	98.648003
71.271897	98.635443
72.308571	98.622700
73.360323	98.609771
74.427374	98.596655
75.509945	98.583348
76.608262	98.569847
77.722555	98.556150
78.853056	98.542253
80.000000	98.528155
81.163627	98.513851
82.344179	98.499339
83.541903	98.484617
84.757048	98.469680
85.989867	98.454526
87.240619	98.439151
88.509563	98.423553
89.796964	98.407728
91.103091	98.391672
92.428216	98.375384
93.772615	98.358858
95.136569	98.342092
96.520362	98.325082
97.924283	98.307824
99.348625	98.290316
100.793684	98.272553
102.259762	98.254532
103.747164	98.236248
105.256202	98.217699
106.787188	98.198879
108.340444	98.179786
109.916292	98.160415
111.515061	98.140763
113.137085	98.120825
114.782702	98.100596
116.452255	98.080074
118.146092	98.059252
119.864566	98.038128
121.608036	98.016697
123.376866	97.994954
125.171424	97.972895
126.992084	97.950515
128.839227	97.927809
130.713236	97.904774
132.614504	97.881403
134.543426	97.857692
136.500406	97.833636
138.485850	97.809231
140.500173	97.784470
142.543795	97.759349
144.617142	97.733863
146.720647	97.708006
148.854748	97.681773
151.019890	97.655159
153.216525	97.628157
155.445111	97.600763
157.706112	97.572970
160.000000	97.544773
162.327254	97.516165
164.688358	97.487142
167.083805	97.457697
169.514095	97.427823
171.979734	97.397514
174.481237	97.366765
177.019125	97.335569
179.593928	97.303919
182.206182	97.271808
184.856431	97.239231
187.545230	97.206179
190.273138	97.172647
193.040725	97.219565
195.848567	97.273039
198.697250	97.217162
201.587368	97.130149
204.519524	97.053780
207.494329	97.039005
210.512403	97.024015
213.574377	97.008807
216.680888	96.993378
219.832584	96.977725
223.030122	96.961844
226.274170	96.945732
229.565404	96.950238
232.904509	96.961311
236.292183	96.972544
239.729132	96.983941
243.216073	96.995504
246.753732	97.007235
250.342848	97.019137
253.984168	97.031211
257.678453	97.043462
261.426473	97.055890
265.229008	97.031224
269.086853	97.005457
273.000811	96.979316
276.971700	96.952794
281.000346	96.925886
285.087590	96.898587
289.234284	96.870891
293.441294	96.842792
297.709496	96.814285
302.039780	96.785363
306.433050	96.756020
310.890221	96.726250
315.412224	96.722117
320.000000	96.737502
324.654507	96.753112
329.376716	96.768948
334.167610	96.785015
339.028190	96.801315
343.959469	96.817853
348.962474	96.818936
354.038251	96.797709
359.187855	96.776173
364.412363	96.754323
369.712863	96.732156
375.090460	96.729957
380.546277	96.831066
386.081450	96.933647
391.697134	97.037719
397.394500	96.977386
403.174736	96.966681
409.039048	97.006405
414.988657	97.046707
421.024807	97.202798
427.148753	97.250531
433.361775	97.190579
439.665167	97.216818
446.060244	97.287368
452.548340	97.358945
459.130807	97.431563
465.809019	97.505237
472.584367	97.452300
479.458265	97.409410
486.432146	97.456963
493.507464	97.505208
500.685695	97.646217
507.968337	97.714078
515.356906	97.645611
522.852945	97.696360
530.458016	97.791345
538.173706	97.887711
546.001623	97.955202
553.943399	97.859362
562.000691	97.884077
570.175180	97.913806
578.468569	97.943967
586.882588	97.968904
595.418991	97.960761
604.079560	97.952500
612.866100	97.944118
621.780442	97.935615
630.824447	97.926988
640.000000	97.918236
649.309014	97.909356
658.753431	97.900347
668.335221	97.891207
678.056380	97.881934
687.918938	97.872527
697.924949	97.862982
708.076501	97.852140
718.375711	97.837831
728.824726	97.823314
739.425726	97.808586
750.180921	97.793644
761.092554	97.778484
772.162900	97.763104
783.394268	97.747500
794.789000	97.708699
806.349472	97.655463
818.078095	97.684333
829.977315	97.641866
842.049613	97.498971
854.297507	97.455749
866.723550	97.411899
879.330334	97.454864
892.120489	97.483466
905.096680	97.374218
918.261614	97.263381
931.618037	97.186714
945.168733	97.282576
958.916529	97.042331
972.864291	96.989373
987.014928	96.951019
1001.371391	97.030700
1015.936673	97.022553
1030.713812	96.972846
1045.705890	96.922416
1060.916032	96.871253
1076.347412	96.819346
1092.003245	96.766684
1107.886798	96.713466
1124.001383	96.736759
1140.350359	96.760390
1156.937137	96.784365
1173.765175	96.808689
1190.837983	96.822570
1208.159120	96.800352
1225.732199	96.777811
1243.560885	96.754942
1261.648894	96.731741
1280.000000	96.744468
1298.618029	96.887120
1317.506863	97.031846
1336.670442	96.975809
1356.112761	97.075570
1375.837875	97.229955
1395.849898	97.509332
1416.153002	97.570559
1436.751422	97.716062
1457.649452	97.807513
1478.851452	97.865578
1500.361842	97.974857
1522.185107	98.118770
1544.325799	98.404109
1566.788535	98.489863
1589.577999	98.553637
1612.698944	98.813326
1636.156190	98.814066
1659.954630	99.063376
1684.099226	99.070872
1708.595013	99.321051
1733.447100	99.293471
1758.660669	99.421655
1784.240977	99.643559
1810.193360	99.712196
1836.523229	99.893896
1863.236074	99.918818
1890.337467	100.028612
1917.833058	100.158838
1945.728583	100.445972
1974.029857	100.393790
2002.742782	100.693526
2031.873347	100.674870
2061.427625	100.870739
2091.411780	101.118241
2121.832065	101.285820
2152.694823	101.419784
2184.006490	101.539020
2215.773596	101.558793
2248.002765	101.709609
2280.700718	101.828419
2313.874274	102.068350
2347.530351	102.042331
2381.675966	102.200793
2416.318240	102.347957
2451.464399	102.440123
2487.121769	102.619995
2523.297789	102.658107
2560.000000	102.688621
2597.236057	102.724584
2635.013726	102.761069
2673.340883	102.798086
2712.225522	102.835641
2751.675750	102.873742
2791.699796	102.700789
2832.306004	102.630824
2873.502844	102.460486
2915.298905	102.433091
2957.702904	102.084103
3000.723683	102.072322
3044.370214	101.811629
3088.651599	101.365060
3133.577071	101.096214
3179.155999	101.000535
3225.397888	100.687998
3272.312380	100.217180
3319.909260	99.873047
3368.198452	99.555930
3417.190027	99.234201
3466.894200	99.101751
3517.321337	98.645129
3568.481954	98.234916
3620.386720	97.945153
3673.046457	97.523944
3726.472148	97.390438
3780.674934	96.958118
3835.666117	96.753956
3891.457165	96.425249
3948.059713	96.060081
4005.485564	95.936614
4063.746693	95.639850
4122.855250	95.503485
4182.823560	95.383593
4243.664130	95.377237
4305.389646	95.430500
4368.012981	95.408273
4431.547192	95.312769
4496.005531	95.213152
4561.401437	95.155163
4627.748549	94.927029
4695.060701	94.874020
4763.351932	94.767544
4832.636481	94.714300
4902.928797	94.660281
4974.243539	94.605477
5046.595577	94.549876
5120.000000	94.493466
5194.472115	94.436235
5270.027452	94.290804
5346.681766	94.096333
5424.451043	94.028013
5503.351500	93.605909
5583.399591	93.355900
5664.612008	92.874087
5747.005687	92.374673
5830.597810	91.867995
5915.405808	91.353947
6001.447367	91.035750
6088.740429	90.372442
6177.303198	89.895103
6267.154142	89.410821
6358.311998	89.097035
6450.795775	88.796128
6544.624761	88.559591
6639.818520	88.584153
6736.396904	88.437188
6834.380053	88.257842
6933.788400	88.162196
7034.642675	87.813911
7136.963909	87.277027
7240.773439	86.508392
7346.092914	85.748643
7452.944296	85.309821
7561.349867	84.512001
7671.332234	83.998671
7782.914330	83.759535
7896.119426	83.545473
8010.971128	83.415989
8127.493386	83.284622
8245.710500	83.280948
8365.647121	83.334953
8487.328260	83.266712
8610.779292	83.393297
8736.025961	83.725482
8863.094385	84.545961
8992.011061	85.219484
9122.802874	86.177055
9255.497097	86.781387
9390.121402	87.406745
9526.703863	87.416254
9665.272962	87.054247
9805.857594	86.291216
9948.487077	85.576417
10093.191154	84.781224
10240.000000	83.851167
10388.944230	83.117279
10540.054903	82.653760
10693.363532	82.261517
10848.902086	81.886568
11006.703001	81.510016
11166.799182	81.129024
11329.224017	80.742491
11494.011375	80.598397
11661.195620	80.361523
11830.811616	80.067017
12002.894734	80.173015
12177.480858	80.322439
12354.606395	80.503057
12534.308283	80.024523
12716.623996	79.418224
12901.591551	78.455971
13089.249521	77.296878
13279.637040	76.329562
13472.793808	75.111854
13668.760107	74.180936
13867.576801	73.375616
14069.285350	72.880600
14273.927818	72.113926
14481.546879	71.846148
14692.185828	71.860298
14905.888592	71.989276
15122.699734	72.460359
15342.664467	73.080753
15565.828661	74.070812
15792.238852	74.558261
16021.942256	74.796839
16254.986772	75.022022
16491.420999	74.999594
16731.294241	74.539387
16974.656520	73.386405
17221.558584	72.606833
17472.051922	71.306765
17726.188769	69.559644
17984.022122	67.645235
18245.605748	65.765128
18510.994194	64.869128
18780.242805	64.597745
19053.407727	64.468504
19330.545924	64.337383
19611.715189	64.154022
19896.974155	64.154022
20186.382308	64.154022