* Measurement data measured by REW V5.31.3
* Source: Input device not selected, no input selected, L, volume: no control
* Format: 256k Log Swept Sine, 1 sweep at -11.0 dBFS with no timing reference
* Dated: Jul 18, 2025 3:37:41 PM
* REW Settings:
*  C-weighting compensation: Off
*  Target level: 75.0 dB
* Note: ; 
* Measurement: M-121i (Sancai) L
* Smoothing: 1/24 octave
* Frequency Step: 1/48 octave
* Start Frequency: 20.300 Hz
*
* Freq(Hz), SPL(dB), Phase(degrees)
20.299999, 80.732, 24.2159
20.600000, 80.747, 23.7151
20.900000, 80.766, 23.1753
21.200001, 80.788, 22.6459
21.400000, 80.804, 22.2928
21.799999, 80.837, 21.5706
22.000000, 80.851, 21.1994
22.400000, 80.874, 20.4448
22.700001, 80.887, 19.8792
23.000000, 80.898, 19.3218
23.299999, 80.908, 18.7750
23.600000, 80.920, 18.2378
24.000000, 80.937, 17.5349
24.299999, 80.950, 17.0205
24.700001, 80.963, 16.3600
25.000000, 80.969, 15.8876
25.400000, 80.973, 15.2839
25.799999, 80.974, 14.6940
26.200001, 80.974, 14.0991
26.500000, 80.975, 13.6445
26.900000, 80.976, 13.0331
27.200001, 80.978, 12.5791
27.600000, 80.982, 11.9907
28.000000, 80.987, 11.4256
28.500000, 80.991, 10.7450
29.000000, 80.993, 10.0827
29.500000, 80.991, 9.4385
30.000000, 80.989, 8.8207
30.400000, 80.990, 8.3481
30.700001, 80.990, 8.0045
31.100000, 80.989, 7.5560
31.500000, 80.985, 7.1122
32.000000, 80.974, 6.5574
32.500000, 80.958, 6.0020
33.000000, 80.943, 5.4525
33.500000, 80.933, 4.9144
34.000000, 80.929, 4.3848
34.500000, 80.926, 3.8526
35.000000, 80.917, 3.3110
35.500000, 80.899, 2.7713
36.000000, 80.874, 2.2631
36.500000, 80.848, 1.8144
37.000000, 80.828, 1.4238
37.500000, 80.814, 1.0519
38.200001, 80.799, 0.4590
38.700001, 80.787, -0.0565
39.500000, 80.763, -0.9861
40.000000, 80.744, -1.5325
40.599998, 80.719, -2.0376
41.200001, 80.698, -2.3726
41.799999, 80.686, -2.6801
42.500000, 80.667, -3.1818
43.099998, 80.631, -3.6735
43.700001, 80.589, -4.0792
44.400002, 80.558, -4.5053
45.000000, 80.543, -5.0056
45.500000, 80.528, -5.5156
46.200001, 80.505, -6.1637
46.799999, 80.495, -6.5574
47.500000, 80.485, -6.9350
48.200001, 80.446, -7.3452
48.700001, 80.403, -7.6627
49.400002, 80.359, -8.1550
50.000000, 80.345, -8.6255
50.799999, 80.328, -9.1621
51.500000, 80.293, -9.4360
52.200001, 80.243, -9.7175
53.000000, 80.168, -10.2599
53.799999, 80.096, -10.8074
54.500000, 80.079, -11.2084
55.200001, 80.100, -11.7309
56.000000, 80.122, -12.3639
57.000000, 80.148, -12.6325
58.000000, 80.137, -12.6966
59.000000, 80.003, -12.9985
60.000000, 79.873, -13.5632
60.799999, 79.823, -14.1385
61.500000, 79.789, -14.4845
62.200001, 79.750, -14.6814
63.000000, 79.699, -14.9810
64.000000, 79.641, -15.5002
65.000000, 79.611, -15.8670
66.000000, 79.579, -16.1232
67.000000, 79.525, -16.5482
68.000000, 79.465, -17.0825
69.000000, 79.415, -17.4215
70.000000, 79.366, -17.6570
71.000000, 79.304, -17.9776
72.000000, 79.257, -18.3264
73.000000, 79.227, -18.6623
74.000000, 79.184, -18.9527
75.000000, 79.131, -19.2333
76.199997, 79.067, -19.5513
77.500000, 79.005, -19.8734
78.800003, 78.944, -20.2447
80.000000, 78.895, -20.5253
81.199997, 78.841, -20.8163
82.500000, 78.780, -21.1871
83.800003, 78.719, -21.4435
85.000000, 78.660, -21.6575
86.199997, 78.608, -21.9108
87.500000, 78.554, -22.1944
88.500000, 78.509, -22.4588
90.000000, 78.454, -22.9052
91.199997, 78.400, -23.1534
92.500000, 78.332, -23.3251
93.800003, 78.270, -23.4565
95.000000, 78.219, -23.6106
96.199997, 78.171, -23.8338
97.500000, 78.128, -24.1061
98.800003, 78.090, -24.3706
100.000000, 78.054, -24.4981
101.500000, 77.989, -24.6138
103.000000, 77.917, -24.9119
104.400002, 77.860, -25.1857
106.000000, 77.763, -25.2981
107.500000, 77.698, -25.4162
109.000000, 77.683, -25.7045
110.599998, 77.644, -25.8715
112.000000, 77.586, -25.9049
113.800003, 77.508, -25.9151
115.000000, 77.468, -26.0886
117.199997, 77.403, -26.4115
118.000000, 77.375, -26.4247
120.599998, 77.271, -26.5900
122.000000, 77.226, -26.8867
124.099998, 77.178, -27.1523
125.000000, 77.152, -27.1990
126.500000, 77.103, -27.2710
128.000000, 77.054, -27.4026
131.500000, 76.931, -27.6687
132.000000, 76.915, -27.7171
134.000000, 76.860, -27.9042
136.000000, 76.805, -28.0217
138.000000, 76.743, -28.1177
140.000000, 76.693, -28.2010
143.000000, 76.626, -28.3283
145.000000, 76.568, -28.4011
147.500000, 76.496, -28.5381
150.000000, 76.435, -28.6409
152.500000, 76.374, -28.7501
155.000000, 76.307, -28.8431
157.500000, 76.249, -28.9789
160.000000, 76.183, -29.0757
162.500000, 76.114, -29.0843
165.000000, 76.048, -29.1099
167.500000, 75.987, -29.1965
170.000000, 75.929, -29.1457
172.500000, 75.873, -29.1180
175.000000, 75.811, -29.1884
177.500000, 75.750, -29.2077
180.000000, 75.695, -29.2058
182.500000, 75.635, -29.2102
185.000000, 75.572, -29.2010
187.500000, 75.511, -29.1588
190.000000, 75.455, -29.0558
192.500000, 75.400, -28.9306
195.000000, 75.345, -28.7916
197.500000, 75.291, -28.5547
200.000000, 75.248, -28.2148
203.000000, 75.211, -27.7239
206.000000, 75.192, -27.2111
209.000000, 75.206, -26.7707
212.000000, 75.253, -26.3213
214.000000, 75.300, -26.1579
218.000000, 75.393, -26.3124
220.000000, 75.431, -26.5012
224.000000, 75.494, -27.1140
227.000000, 75.516, -27.5396
230.000000, 75.492, -27.8273
233.000000, 75.450, -28.1068
236.000000, 75.430, -28.3904
240.000000, 75.412, -28.7510
243.000000, 75.386, -29.0353
247.000000, 75.339, -29.3415
250.000000, 75.301, -29.5282
254.000000, 75.260, -29.7204
258.000000, 75.233, -29.8419
262.000000, 75.203, -29.9450
265.000000, 75.182, -29.9901
269.000000, 75.151, -30.1185
272.000000, 75.128, -30.2279
276.000000, 75.104, -30.3224
280.000000, 75.078, -30.3918
285.000000, 75.044, -30.4684
290.000000, 75.015, -30.5614
295.000000, 74.988, -30.6831
300.000000, 74.966, -30.8291
304.000000, 74.951, -30.9212
307.000000, 74.939, -30.9601
311.000000, 74.925, -31.0113
315.000000, 74.919, -31.0783
320.000000, 74.907, -31.1310
325.000000, 74.896, -31.1986
330.000000, 74.885, -31.2850
335.000000, 74.878, -31.3817
340.000000, 74.875, -31.5096
345.000000, 74.874, -31.6362
350.000000, 74.867, -31.7285
355.000000, 74.862, -31.7949
360.000000, 74.864, -31.8659
365.000000, 74.863, -31.9538
370.000000, 74.861, -32.0625
375.000000, 74.867, -32.1546
382.000000, 74.876, -32.2823
387.000000, 74.878, -32.3897
395.000000, 74.880, -32.5772
400.000000, 74.882, -32.6676
406.000000, 74.887, -32.7730
412.000000, 74.890, -32.8563
418.000000, 74.897, -32.9901
425.000000, 74.905, -33.1816
431.000000, 74.912, -33.3117
437.000000, 74.919, -33.4349
444.000000, 74.930, -33.5644
450.000000, 74.940, -33.6862
455.000000, 74.948, -33.7728
462.000000, 74.962, -33.8551
468.000000, 74.978, -33.9206
475.000000, 75.000, -33.9740
482.000000, 75.026, -33.9996
487.000000, 75.049, -34.0206
494.000000, 75.089, -34.0963
500.000000, 75.126, -34.2147
508.000000, 75.175, -34.4602
515.000000, 75.215, -34.7136
522.000000, 75.253, -34.9570
530.000000, 75.289, -35.2658
538.000000, 75.319, -35.5835
545.000000, 75.341, -35.8538
552.000000, 75.359, -36.1035
560.000000, 75.378, -36.3980
570.000000, 75.397, -36.7811
580.000000, 75.413, -37.1538
590.000000, 75.429, -37.4675
600.000000, 75.445, -37.7847
608.000000, 75.457, -38.0122
615.000000, 75.465, -38.2056
622.000000, 75.471, -38.3962
630.000000, 75.476, -38.5935
640.000000, 75.484, -38.8426
650.000000, 75.491, -39.1088
660.000000, 75.500, -39.3524
670.000000, 75.503, -39.5501
680.000000, 75.501, -39.7268
690.000000, 75.501, -39.8804
700.000000, 75.501, -39.9944
710.000000, 75.502, -40.1141
720.000000, 75.500, -40.2274
730.000000, 75.498, -40.3060
740.000000, 75.497, -40.3481
750.000000, 75.495, -40.3522
762.000000, 75.493, -40.3483
775.000000, 75.492, -40.3120
788.000000, 75.493, -40.2321
800.000000, 75.499, -40.1047
812.000000, 75.504, -39.9602
825.000000, 75.510, -39.7911
838.000000, 75.521, -39.5638
850.000000, 75.536, -39.3603
862.000000, 75.555, -39.1374
875.000000, 75.578, -38.8453
885.000000, 75.598, -38.5883
900.000000, 75.632, -38.1845
912.000000, 75.666, -37.8822
925.000000, 75.708, -37.5735
938.000000, 75.754, -37.2567
950.000000, 75.801, -36.9577
962.000000, 75.851, -36.6436
975.000000, 75.907, -36.3130
988.000000, 75.968, -36.0162
1000.000000, 76.028, -35.7775
1015.000000, 76.104, -35.5000
1030.000000, 76.179, -35.2184
1044.000000, 76.254, -34.9316
1060.000000, 76.350, -34.6250
1075.000000, 76.445, -34.3857
1090.000000, 76.541, -34.1726
1106.000000, 76.643, -33.9859
1120.000000, 76.731, -33.8494
1138.000000, 76.843, -33.7208
1150.000000, 76.917, -33.6515
1172.000000, 77.044, -33.5729
1180.000000, 77.089, -33.5587
1206.000000, 77.226, -33.5311
1220.000000, 77.296, -33.5276
1241.000000, 77.396, -33.5350
1250.000000, 77.437, -33.5428
1265.000000, 77.502, -33.5631
1280.000000, 77.563, -33.5912
1315.000000, 77.690, -33.6683
1320.000000, 77.707, -33.6784
1340.000000, 77.773, -33.6986
1360.000000, 77.837, -33.7088
1380.000000, 77.895, -33.6913
1400.000000, 77.950, -33.6539
1430.000000, 78.026, -33.5874
1450.000000, 78.072, -33.5349
1475.000000, 78.121, -33.4366
1500.000000, 78.165, -33.3144
1525.000000, 78.207, -33.1588
1550.000000, 78.248, -32.9902
1575.000000, 78.281, -32.7717
1600.000000, 78.308, -32.4984
1625.000000, 78.333, -32.1954
1650.000000, 78.353, -31.8118
1675.000000, 78.371, -31.3501
1700.000000, 78.392, -30.8016
1725.000000, 78.416, -30.1803
1750.000000, 78.449, -29.4931
1775.000000, 78.497, -28.7575
1800.000000, 78.560, -28.0126
1825.000000, 78.636, -27.2341
1850.000000, 78.725, -26.4596
1875.000000, 78.825, -25.7274
1900.000000, 78.936, -25.0604
1925.000000, 79.052, -24.4432
1950.000000, 79.173, -23.8697
1975.000000, 79.296, -23.3575
2000.000000, 79.419, -22.9024
2030.000000, 79.570, -22.3973
2060.000000, 79.723, -21.9291
2090.000000, 79.875, -21.5308
2120.000000, 80.025, -21.1842
2140.000000, 80.126, -20.9852
2180.000000, 80.329, -20.6513
2200.000000, 80.429, -20.5101
2240.000000, 80.627, -20.2890
2270.000000, 80.773, -20.1934
2300.000000, 80.919, -20.1516
2330.000000, 81.064, -20.1591
2360.000000, 81.205, -20.2170
2400.000000, 81.386, -20.3502
2430.000000, 81.519, -20.5038
2470.000000, 81.688, -20.7819
2500.000000, 81.807, -21.0438
2540.000000, 81.954, -21.4647
2580.000000, 82.092, -21.9343
2620.000000, 82.216, -22.4642
2650.000000, 82.300, -22.8888
2690.000000, 82.402, -23.4737
2720.000000, 82.472, -23.9309
2760.000000, 82.555, -24.5809
2800.000000, 82.629, -25.2911
2850.000000, 82.704, -26.2842
2900.000000, 82.744, -27.3529
2950.000000, 82.744, -28.4415
3000.000000, 82.712, -29.4660
3040.000000, 82.666, -30.2095
3070.000000, 82.620, -30.7297
3110.000000, 82.546, -31.3625
3150.000000, 82.460, -31.9142
3200.000000, 82.337, -32.4818
3250.000000, 82.202, -32.9171
3300.000000, 82.058, -33.2111
3350.000000, 81.912, -33.3802
3400.000000, 81.761, -33.4204
3450.000000, 81.610, -33.3393
3500.000000, 81.461, -33.1598
3550.000000, 81.315, -32.8866
3600.000000, 81.172, -32.5314
3650.000000, 81.034, -32.0943
3700.000000, 80.899, -31.5763
3750.000000, 80.771, -30.9801
3820.000000, 80.603, -30.0361
3870.000000, 80.494, -29.2824
3950.000000, 80.349, -27.9641
4000.000000, 80.275, -27.1313
4060.000000, 80.195, -26.1654
4120.000000, 80.120, -25.2484
4180.000000, 80.047, -24.3735
4250.000000, 79.955, -23.3920
4310.000000, 79.867, -22.5394
4370.000000, 79.768, -21.6446
4440.000000, 79.634, -20.4994
4500.000000, 79.506, -19.3630
4550.000000, 79.388, -18.2454
4620.000000, 79.215, -16.2817
4680.000000, 79.088, -14.0514
4750.000000, 79.035, -10.7845
4820.000000, 79.163, -7.2067
4870.000000, 79.379, -4.9256
4940.000000, 79.793, -2.7623
5000.000000, 80.164, -1.9726
5080.000000, 80.583, -2.0614
5150.000000, 80.845, -2.7450
5220.000000, 81.014, -3.6682
5300.000000, 81.113, -4.7613
5380.000000, 81.132, -5.7762
5450.000000, 81.094, -6.5367
5520.000000, 81.014, -7.1452
5600.000000, 80.878, -7.6096
5700.000000, 80.657, -7.7899
5800.000000, 80.397, -7.4776
5900.000000, 80.107, -6.6200
6000.000000, 79.815, -5.0706
6080.000000, 79.608, -3.3156
6150.000000, 79.455, -1.4499
6220.000000, 79.339, 0.7296
6300.000000, 79.272, 3.5708
6400.000000, 79.318, 7.5473
6500.000000, 79.540, 11.7401
6600.000000, 79.970, 15.7585
6700.000000, 80.614, 19.0692
6800.000000, 81.442, 21.1445
6900.000000, 82.393, 21.5161
7000.000000, 83.380, 19.8905
7100.000000, 84.304, 16.2392
7200.000000, 85.088, 10.7375
7300.000000, 85.660, 3.5871
7400.000000, 85.947, -4.9265
7500.000000, 85.871, -14.2530
7620.000000, 85.233, -25.3110
7750.000000, 83.915, -35.2580
7880.000000, 82.158, -41.5425
8000.000000, 80.400, -43.6099
8120.000000, 78.735, -42.3353
8250.000000, 77.240, -38.2707
8380.000000, 76.156, -33.2379
8500.000000, 75.410, -29.0605
8620.000000, 74.732, -25.4229
8750.000000, 73.982, -21.2289
8850.000000, 73.420, -17.3217
9000.000000, 72.718, -10.1463
9120.000000, 72.366, -3.5388
9250.000000, 72.270, 4.0007
9380.000000, 72.509, 11.1370
9500.000000, 73.003, 16.4989
9620.000000, 73.680, 20.0312
9750.000000, 74.494, 21.3827
9880.000000, 75.189, 19.8458
10000.000000, 75.529, 16.5731
10150.000000, 75.462, 12.0766
10300.000000, 74.984, 9.0854
10440.000000, 74.379, 8.3483
10600.000000, 73.714, 9.6332
10750.000000, 73.219, 12.1711
10900.000000, 72.874, 15.3981
11060.000000, 72.674, 19.1149
11200.000000, 72.635, 22.2905
11380.000000, 72.755, 25.9818
11500.000000, 72.930, 27.9432
11720.000000, 73.305, 29.7255
11800.000000, 73.401, 29.8686
12060.000000, 73.561, 30.5614
12200.000000, 73.636, 31.1135
12410.000000, 73.947, 33.4745
12500.000000, 74.335, 34.1518
12650.000000, 74.968, 31.3457
12800.000000, 74.990, 26.4610
13150.000000, 74.173, 22.1719
13200.000000, 74.087, 22.1301
13400.000000, 73.905, 22.2691
13600.000000, 73.970, 22.0563
13800.000000, 74.219, 20.3067
14000.000000, 74.476, 16.1129
14300.000000, 74.321, 5.6410
14500.000000, 73.602, -2.0596
14750.000000, 72.045, -9.1010
15000.000000, 70.162, -11.1988
15250.000000, 68.427, -8.8056
15500.000000, 67.103, -3.5170
15750.000000, 66.283, 2.9841
16000.000000, 65.948, 9.1895
16250.000000, 65.971, 14.0145
16500.000000, 66.214, 17.0616
16750.000000, 66.549, 18.1818
17000.000000, 66.842, 17.3420
17250.000000, 67.007, 15.0729
17500.000000, 67.006, 11.8361
17750.000000, 66.829, 7.8991
18000.000000, 66.516, 3.4000
18250.000000, 66.215, -2.5106
18500.000000, 65.599, -12.2133
18750.000000, 64.168, -23.0882
19000.000000, 62.103, -32.6546
19250.000000, 59.662, -41.2878
19500.000000, 56.889, -49.5941
19750.000000, 53.877, -57.3017
