* Measurement data measured by REW V5.31.3
* Source: Input device not selected, no input selected, L, volume: no control
* Format: 256k Log Swept Sine, 1 sweep at -12.0 dBFS with no timing reference
* Dated: Dec 2, 2024 8:25:11 PM
* REW Settings:
*  C-weighting compensation: Off
*  Target level: 75.0 dB
* Note: ; 
* Measurement: M-121i (Floaudio Foam) L
* Smoothing: 1/24 octave
* Frequency Step: 1/48 octave
* Start Frequency: 20.300 Hz
*
* Freq(Hz), SPL(dB), Phase(degrees)
20.299999, 80.964, 20.9214
20.600000, 80.984, 20.5138
20.900000, 81.009, 20.0566
21.200001, 81.036, 19.5862
21.400000, 81.053, 19.2581
21.799999, 81.082, 18.5399
22.000000, 81.092, 18.1406
22.400000, 81.100, 17.2610
22.700001, 81.094, 16.5528
23.000000, 81.083, 15.8396
23.299999, 81.072, 15.1580
23.600000, 81.067, 14.5339
24.000000, 81.080, 13.7997
24.299999, 81.104, 13.3038
24.700001, 81.147, 12.6734
25.000000, 81.177, 12.2046
25.400000, 81.203, 11.5865
25.799999, 81.208, 11.0034
26.200001, 81.196, 10.4844
26.500000, 81.182, 10.1399
26.900000, 81.168, 9.7190
27.200001, 81.163, 9.4073
27.600000, 81.165, 8.9591
28.000000, 81.172, 8.4419
28.500000, 81.178, 7.6865
29.000000, 81.172, 6.8606
29.500000, 81.153, 6.0691
30.000000, 81.134, 5.4092
30.400000, 81.126, 4.9860
30.700001, 81.125, 4.7037
31.100000, 81.129, 4.3277
31.500000, 81.131, 3.9103
32.000000, 81.118, 3.3238
32.500000, 81.091, 2.7232
33.000000, 81.063, 2.1728
33.500000, 81.047, 1.6747
34.000000, 81.043, 1.1804
34.500000, 81.038, 0.6574
35.000000, 81.020, 0.1253
35.500000, 80.991, -0.3759
36.000000, 80.962, -0.8390
36.500000, 80.942, -1.2930
37.000000, 80.927, -1.7589
37.500000, 80.912, -2.2262
38.200001, 80.887, -2.8600
38.700001, 80.871, -3.3205
39.500000, 80.848, -4.0928
40.000000, 80.833, -4.5356
40.599998, 80.813, -4.9678
41.200001, 80.788, -5.3414
41.799999, 80.752, -5.7643
42.500000, 80.697, -6.3862
43.099998, 80.652, -6.9753
43.700001, 80.621, -7.5027
44.400002, 80.604, -7.9557
45.000000, 80.595, -8.2771
45.500000, 80.577, -8.5884
46.200001, 80.526, -9.1144
46.799999, 80.479, -9.5776
47.500000, 80.451, -10.0857
48.200001, 80.440, -10.5521
48.700001, 80.421, -10.8210
49.400002, 80.377, -11.1048
50.000000, 80.336, -11.3891
50.799999, 80.283, -11.9632
51.500000, 80.237, -12.4816
52.200001, 80.199, -12.8520
53.000000, 80.167, -13.2260
53.799999, 80.134, -13.7306
54.500000, 80.103, -14.1994
55.200001, 80.074, -14.5533
56.000000, 80.038, -14.8278
57.000000, 79.977, -15.2344
58.000000, 79.922, -15.8248
59.000000, 79.898, -16.5419
60.000000, 79.846, -17.1313
60.799999, 79.785, -17.2623
61.500000, 79.746, -17.2678
62.200001, 79.715, -17.4055
63.000000, 79.666, -17.7490
64.000000, 79.603, -18.1625
65.000000, 79.563, -18.5142
66.000000, 79.497, -18.9600
67.000000, 79.403, -19.4720
68.000000, 79.344, -19.9894
69.000000, 79.310, -20.3997
70.000000, 79.264, -20.6498
71.000000, 79.208, -20.9101
72.000000, 79.158, -21.1907
73.000000, 79.132, -21.5204
74.000000, 79.105, -21.8304
75.000000, 79.073, -21.9694
76.199997, 79.013, -22.2191
77.500000, 78.930, -22.5681
78.800003, 78.865, -22.8603
80.000000, 78.797, -23.1945
81.199997, 78.731, -23.6267
82.500000, 78.665, -23.9230
83.800003, 78.595, -24.1722
85.000000, 78.535, -24.4729
86.199997, 78.498, -24.7587
87.500000, 78.461, -25.0091
88.500000, 78.411, -25.2015
90.000000, 78.320, -25.4670
91.199997, 78.266, -25.6574
92.500000, 78.209, -25.8529
93.800003, 78.153, -26.0829
95.000000, 78.104, -26.2776
96.199997, 78.049, -26.4790
97.500000, 77.987, -26.7860
98.800003, 77.932, -27.0461
100.000000, 77.891, -27.1632
101.500000, 77.837, -27.2972
103.000000, 77.779, -27.5004
104.400002, 77.726, -27.6466
106.000000, 77.659, -27.8403
107.500000, 77.597, -28.0550
109.000000, 77.535, -28.1510
110.599998, 77.476, -28.2842
112.000000, 77.420, -28.4595
113.800003, 77.358, -28.5771
115.000000, 77.315, -28.6849
117.199997, 77.230, -28.8969
118.000000, 77.202, -28.9780
120.599998, 77.131, -29.2881
122.000000, 77.094, -29.3869
124.099998, 77.017, -29.5184
125.000000, 76.983, -29.6024
126.500000, 76.938, -29.7569
128.000000, 76.899, -29.9349
131.500000, 76.769, -30.1282
132.000000, 76.751, -30.1422
134.000000, 76.689, -30.2357
136.000000, 76.651, -30.3438
138.000000, 76.600, -30.3652
140.000000, 76.548, -30.4291
143.000000, 76.458, -30.6538
145.000000, 76.405, -30.6622
147.500000, 76.332, -30.8217
150.000000, 76.268, -30.9640
152.500000, 76.214, -31.0035
155.000000, 76.160, -31.2390
157.500000, 76.100, -31.2663
160.000000, 76.049, -31.1477
162.500000, 76.005, -31.1965
165.000000, 75.947, -31.3774
167.500000, 75.899, -31.5636
170.000000, 75.847, -31.5794
172.500000, 75.795, -31.6185
175.000000, 75.747, -31.6893
177.500000, 75.701, -31.6837
180.000000, 75.655, -31.6398
182.500000, 75.609, -31.7641
185.000000, 75.568, -31.8769
187.500000, 75.527, -31.9539
190.000000, 75.487, -32.0007
192.500000, 75.447, -31.9988
195.000000, 75.407, -31.9913
197.500000, 75.368, -31.9996
200.000000, 75.329, -32.0437
203.000000, 75.288, -32.1089
206.000000, 75.244, -32.1700
209.000000, 75.218, -32.1846
212.000000, 75.201, -32.1360
214.000000, 75.184, -32.1601
218.000000, 75.131, -32.2046
220.000000, 75.099, -32.1704
224.000000, 75.041, -32.2297
227.000000, 75.017, -32.3186
230.000000, 74.996, -32.3675
233.000000, 74.961, -32.3870
236.000000, 74.930, -32.3941
240.000000, 74.894, -32.4819
243.000000, 74.876, -32.5921
247.000000, 74.866, -32.6768
250.000000, 74.846, -32.6625
254.000000, 74.802, -32.6421
258.000000, 74.770, -32.6521
262.000000, 74.747, -32.6922
265.000000, 74.724, -32.7455
269.000000, 74.700, -32.7743
272.000000, 74.686, -32.7579
276.000000, 74.666, -32.7888
280.000000, 74.649, -32.8329
285.000000, 74.631, -32.8941
290.000000, 74.618, -32.9557
295.000000, 74.596, -33.0068
300.000000, 74.583, -33.1295
304.000000, 74.569, -33.1358
307.000000, 74.559, -33.1052
311.000000, 74.550, -33.1706
315.000000, 74.544, -33.2913
320.000000, 74.539, -33.4018
325.000000, 74.532, -33.4487
330.000000, 74.530, -33.5276
335.000000, 74.522, -33.6385
340.000000, 74.517, -33.7598
345.000000, 74.522, -33.7885
350.000000, 74.528, -33.8530
355.000000, 74.529, -33.9697
360.000000, 74.531, -34.0437
365.000000, 74.532, -34.1400
370.000000, 74.536, -34.2718
375.000000, 74.533, -34.3908
382.000000, 74.533, -34.5431
387.000000, 74.540, -34.5807
395.000000, 74.563, -34.6599
400.000000, 74.571, -34.8059
406.000000, 74.578, -35.0561
412.000000, 74.582, -35.3025
418.000000, 74.599, -35.4557
425.000000, 74.625, -35.6447
431.000000, 74.637, -35.8257
437.000000, 74.649, -35.9930
444.000000, 74.659, -36.1076
450.000000, 74.665, -36.2115
455.000000, 74.677, -36.3665
462.000000, 74.703, -36.6100
468.000000, 74.729, -36.8052
475.000000, 74.749, -37.0315
482.000000, 74.762, -37.2479
487.000000, 74.771, -37.4072
494.000000, 74.786, -37.6209
500.000000, 74.797, -37.8161
508.000000, 74.815, -38.1273
515.000000, 74.838, -38.3307
522.000000, 74.858, -38.4904
530.000000, 74.867, -38.7668
538.000000, 74.879, -39.0137
545.000000, 74.895, -39.1989
552.000000, 74.907, -39.4044
560.000000, 74.924, -39.6672
570.000000, 74.948, -40.0253
580.000000, 74.962, -40.3135
590.000000, 74.970, -40.6119
600.000000, 74.982, -40.8853
608.000000, 74.994, -41.1230
615.000000, 75.005, -41.3587
622.000000, 75.012, -41.5576
630.000000, 75.012, -41.7298
640.000000, 75.016, -42.0016
650.000000, 75.023, -42.2609
660.000000, 75.027, -42.4981
670.000000, 75.028, -42.7109
680.000000, 75.022, -42.9263
690.000000, 75.024, -43.0477
700.000000, 75.026, -43.1480
710.000000, 75.021, -43.2794
720.000000, 75.017, -43.3890
730.000000, 75.017, -43.4265
740.000000, 75.007, -43.4401
750.000000, 74.994, -43.4476
762.000000, 74.989, -43.3985
775.000000, 74.994, -43.3274
788.000000, 74.994, -43.2621
800.000000, 74.991, -43.1407
812.000000, 74.987, -42.9500
825.000000, 74.992, -42.7629
838.000000, 75.001, -42.5568
850.000000, 75.016, -42.3161
862.000000, 75.038, -42.0043
875.000000, 75.065, -41.6373
885.000000, 75.083, -41.3795
900.000000, 75.114, -40.9842
912.000000, 75.149, -40.6716
925.000000, 75.193, -40.3245
938.000000, 75.241, -39.9566
950.000000, 75.292, -39.6320
962.000000, 75.351, -39.2813
975.000000, 75.419, -38.8994
988.000000, 75.492, -38.5519
1000.000000, 75.563, -38.2469
1015.000000, 75.640, -37.9612
1030.000000, 75.720, -37.6755
1044.000000, 75.796, -37.3751
1060.000000, 75.887, -37.0290
1075.000000, 75.984, -36.6996
1090.000000, 76.087, -36.4124
1106.000000, 76.198, -36.2050
1120.000000, 76.295, -36.0420
1138.000000, 76.411, -35.8524
1150.000000, 76.485, -35.7682
1172.000000, 76.625, -35.6415
1180.000000, 76.675, -35.6087
1206.000000, 76.823, -35.5500
1220.000000, 76.902, -35.5592
1241.000000, 77.016, -35.5501
1250.000000, 77.064, -35.5373
1265.000000, 77.142, -35.5253
1280.000000, 77.214, -35.5442
1315.000000, 77.368, -35.5582
1320.000000, 77.388, -35.5566
1340.000000, 77.469, -35.5711
1360.000000, 77.544, -35.5592
1380.000000, 77.617, -35.5274
1400.000000, 77.688, -35.5484
1430.000000, 77.786, -35.4931
1450.000000, 77.850, -35.4236
1475.000000, 77.923, -35.2844
1500.000000, 77.993, -35.1368
1525.000000, 78.055, -34.9761
1550.000000, 78.110, -34.7963
1575.000000, 78.165, -34.5832
1600.000000, 78.218, -34.3234
1625.000000, 78.269, -33.9902
1650.000000, 78.320, -33.6368
1675.000000, 78.372, -33.2511
1700.000000, 78.429, -32.7969
1725.000000, 78.486, -32.2621
1750.000000, 78.550, -31.6955
1775.000000, 78.621, -31.1061
1800.000000, 78.697, -30.4660
1825.000000, 78.785, -29.7935
1850.000000, 78.886, -29.1593
1875.000000, 78.991, -28.5308
1900.000000, 79.107, -27.8862
1925.000000, 79.234, -27.2593
1950.000000, 79.368, -26.6875
1975.000000, 79.506, -26.1900
2000.000000, 79.646, -25.7562
2030.000000, 79.818, -25.3009
2060.000000, 79.989, -24.8695
2090.000000, 80.162, -24.5026
2120.000000, 80.338, -24.1783
2140.000000, 80.456, -23.9917
2180.000000, 80.694, -23.7052
2200.000000, 80.814, -23.5966
2240.000000, 81.053, -23.4427
2270.000000, 81.229, -23.3975
2300.000000, 81.403, -23.3978
2330.000000, 81.576, -23.4737
2360.000000, 81.744, -23.6005
2400.000000, 81.962, -23.8473
2430.000000, 82.124, -24.0969
2470.000000, 82.329, -24.5088
2500.000000, 82.474, -24.8730
2540.000000, 82.661, -25.4454
2580.000000, 82.834, -26.0963
2620.000000, 82.992, -26.8298
2650.000000, 83.101, -27.4133
2690.000000, 83.230, -28.2381
2720.000000, 83.314, -28.9002
2760.000000, 83.411, -29.8236
2800.000000, 83.488, -30.7582
2850.000000, 83.557, -31.8927
2900.000000, 83.597, -33.0224
2950.000000, 83.610, -34.1407
3000.000000, 83.594, -35.1625
3040.000000, 83.564, -35.9246
3070.000000, 83.533, -36.4509
3110.000000, 83.481, -37.0679
3150.000000, 83.419, -37.6142
3200.000000, 83.330, -38.1894
3250.000000, 83.234, -38.6449
3300.000000, 83.133, -38.9915
3350.000000, 83.029, -39.2072
3400.000000, 82.926, -39.2997
3450.000000, 82.826, -39.2859
3500.000000, 82.729, -39.1779
3550.000000, 82.638, -38.9825
3600.000000, 82.556, -38.7136
3650.000000, 82.483, -38.4078
3700.000000, 82.417, -38.0697
3750.000000, 82.360, -37.7057
3820.000000, 82.299, -37.1662
3870.000000, 82.265, -36.7937
3950.000000, 82.226, -36.2645
4000.000000, 82.205, -35.9668
4060.000000, 82.180, -35.6768
4120.000000, 82.153, -35.4910
4180.000000, 82.113, -35.4015
4250.000000, 82.045, -35.3778
4310.000000, 81.965, -35.3971
4370.000000, 81.856, -35.3750
4440.000000, 81.685, -35.2088
4500.000000, 81.504, -34.8331
4550.000000, 81.337, -34.2859
4620.000000, 81.091, -33.0316
4680.000000, 80.900, -31.3511
4750.000000, 80.768, -28.6717
4820.000000, 80.808, -25.5726
4870.000000, 80.964, -23.5389
4940.000000, 81.305, -21.6157
5000.000000, 81.624, -21.0452
5080.000000, 81.980, -21.5504
5150.000000, 82.182, -22.6626
5220.000000, 82.277, -24.0108
5300.000000, 82.278, -25.5617
5380.000000, 82.184, -26.9557
5450.000000, 82.039, -27.9653
5520.000000, 81.849, -28.7229
5600.000000, 81.595, -29.2471
5700.000000, 81.240, -29.4086
5800.000000, 80.857, -28.9669
5900.000000, 80.474, -27.8087
6000.000000, 80.136, -26.0590
6080.000000, 79.906, -24.3765
6150.000000, 79.740, -22.6911
6220.000000, 79.611, -20.8246
6300.000000, 79.518, -18.5360
6400.000000, 79.508, -15.5939
6500.000000, 79.633, -12.7419
6600.000000, 79.893, -10.4000
6700.000000, 80.269, -9.0043
6800.000000, 80.700, -8.9321
6900.000000, 81.104, -10.2943
7000.000000, 81.395, -12.9451
7100.000000, 81.510, -16.5402
7200.000000, 81.414, -20.6165
7300.000000, 81.098, -24.7259
7400.000000, 80.574, -28.4210
7500.000000, 79.877, -31.3886
7620.000000, 78.875, -33.6795
7750.000000, 77.653, -34.2584
7880.000000, 76.375, -32.6924
8000.000000, 75.247, -29.2948
8120.000000, 74.277, -24.1941
8250.000000, 73.514, -17.5965
8380.000000, 73.055, -11.2113
8500.000000, 72.755, -6.2659
8620.000000, 72.427, -1.8625
8750.000000, 72.017, 3.2309
8850.000000, 71.713, 7.8877
9000.000000, 71.396, 16.1602
9120.000000, 71.356, 23.5997
9250.000000, 71.594, 31.9071
9380.000000, 72.141, 39.7133
9500.000000, 72.897, 45.8472
9620.000000, 73.831, 50.4424
9750.000000, 74.988, 53.4043
9880.000000, 76.168, 53.7175
10000.000000, 77.103, 51.7085
10150.000000, 77.911, 47.3354
10300.000000, 78.308, 42.5283
10440.000000, 78.409, 38.7817
10600.000000, 78.385, 35.8525
10750.000000, 78.373, 34.1605
10900.000000, 78.448, 32.9507
11060.000000, 78.643, 31.4770
11200.000000, 78.892, 29.4829
11380.000000, 79.231, 25.3908
11500.000000, 79.394, 21.5220
11720.000000, 79.321, 12.4150
11800.000000, 79.114, 8.8027
12060.000000, 77.779, -0.8288
12200.000000, 76.834, -3.6780
12410.000000, 75.560, -4.0331
12500.000000, 75.290, -3.7371
12650.000000, 75.029, -6.3710
12800.000000, 74.321, -11.1540
13150.000000, 71.652, -16.0484
13200.000000, 71.264, -16.2121
13400.000000, 69.709, -16.1296
13600.000000, 68.119, -14.8307
13800.000000, 66.532, -12.1912
14000.000000, 64.968, -8.1034
14300.000000, 62.806, 0.5672
14500.000000, 61.568, 7.8750
14750.000000, 60.311, 18.0566
15000.000000, 59.384, 28.8029
15250.000000, 58.723, 39.9029
15500.000000, 58.407, 50.4973
15750.000000, 58.462, 60.0773
16000.000000, 58.768, 68.0720
16250.000000, 59.248, 73.9156
16500.000000, 59.745, 77.0968
16750.000000, 60.110, 78.1963
17000.000000, 60.163, 77.8991
17250.000000, 59.876, 77.1425
17500.000000, 59.253, 77.2754
17750.000000, 58.400, 78.8683
18000.000000, 57.433, 82.6500
18250.000000, 56.741, 89.0897
18500.000000, 56.566, 92.7255
18750.000000, 56.266, 92.0251
19000.000000, 55.776, 89.0566
19250.000000, 55.036, 82.9007
19500.000000, 53.810, 72.8417
19750.000000, 52.138, 60.4351
