* Exported with UsyTrace, available at https://usyless.uk/trace
* Freq(Hz)	SPL(dB)
20.000000	108.746929
20.290907	108.746929
20.586045	108.746929
20.885476	108.833473
21.189262	108.919233
21.497467	108.993875
21.810155	109.104622
22.127391	109.181805
22.449241	109.255867
22.775773	109.329646
23.107054	109.403470
23.443154	109.477609
23.784142	109.551194
24.130091	109.662207
24.481071	109.836888
24.837156	109.732212
25.198421	109.805772
25.564940	109.872869
25.936791	109.928086
26.314050	109.983832
26.696797	110.038876
27.085111	110.094720
27.479073	110.029439
27.878765	110.036002
28.284271	110.177795
28.695675	110.247791
29.113064	110.291940
29.536523	110.336730
29.966142	110.390033
30.402009	110.445624
30.844217	110.486073
31.292856	110.517359
31.748021	110.549101
32.209807	110.581304
32.678309	110.607403
33.153626	110.631582
33.635857	110.656114
34.125101	110.681002
34.621462	110.706252
35.125043	110.728660
35.635949	110.750337
36.154286	110.772330
36.680162	110.794642
37.213687	110.817279
37.754973	110.836932
38.304131	110.844361
38.861278	110.851899
39.426528	110.859546
40.000000	110.867304
40.581813	110.875175
41.172089	110.883161
41.770951	110.891263
42.378524	110.899483
42.994934	110.907822
43.620309	110.916283
44.254781	110.924866
44.898482	110.933575
45.551545	110.942410
46.214108	110.951373
46.886308	110.955727
47.568285	110.945398
48.260181	110.934919
48.962142	110.924288
49.674312	110.913502
50.396842	110.902559
51.129881	110.891456
51.873582	110.880193
52.628101	110.868765
53.393594	110.857172
54.170222	110.845409
54.958146	110.831119
55.757531	110.804036
56.568542	110.776559
57.391351	110.748682
58.226127	110.720400
59.073046	110.695239
59.932283	110.671065
60.804018	110.646540
61.688433	110.621659
62.585712	110.596415
63.496042	110.566915
64.419613	110.535577
65.356618	110.503784
66.307252	110.471528
67.271713	110.435788
68.250203	110.399016
69.242925	110.361710
70.250086	110.324804
71.271897	110.288204
72.308571	110.251072
73.360323	110.191303
74.427374	110.043822
75.509945	109.999031
76.608262	110.043135
77.722555	110.087881
78.853056	110.070373
80.000000	110.033647
81.163627	109.996386
82.344179	109.951150
83.541903	109.895876
84.757048	109.877540
85.989867	109.949445
87.240619	109.730423
88.509563	109.803957
89.796964	109.814381
91.103091	109.703520
92.428216	109.599816
93.772615	109.544792
95.136569	109.488967
96.520362	109.444135
97.924283	109.399794
99.348625	109.353497
100.793684	109.298464
102.259762	109.242630
103.747164	109.187634
105.256202	109.131975
106.787188	109.084633
108.340444	109.040424
109.916292	108.995571
111.515061	108.951736
113.137085	108.907381
114.782702	108.857836
116.452255	108.784139
118.146092	108.728815
119.864566	108.692231
121.608036	108.655115
123.376866	108.616477
125.171424	108.572605
126.992084	108.528096
128.839227	108.471706
130.713236	108.397753
132.614504	108.346039
134.543426	108.301808
136.500406	108.256934
138.485850	108.213138
140.500173	108.168761
142.543795	108.121898
144.617142	108.066820
146.720647	108.010940
148.854748	107.937768
151.019890	107.869634
153.216525	107.814461
155.445111	107.758662
157.706112	107.703661
160.000000	107.647860
162.327254	107.609235
164.688358	107.572448
167.083805	107.535126
169.514095	107.477591
171.979734	107.403473
174.481237	107.329874
177.019125	107.255806
179.593928	107.182037
182.206182	107.142465
184.856431	107.129279
187.545230	107.115901
190.273138	107.102329
193.040725	107.088559
195.848567	107.074589
198.697250	107.060416
201.587368	107.046036
204.519524	107.031448
207.494329	107.017895
210.512403	107.004684
213.574377	106.991281
216.680888	106.977683
219.832584	106.963887
223.030122	106.949890
226.274170	106.935690
229.565404	106.921283
232.904509	106.906667
236.292183	106.874029
239.729132	106.837270
243.216073	106.799977
246.753732	106.770531
250.342848	106.748931
253.984168	106.727018
257.678453	106.704785
261.426473	106.682229
265.229008	106.659345
269.086853	106.648011
273.000811	106.636980
276.971700	106.625788
281.000346	106.614434
285.087590	106.602915
289.234284	106.591228
293.441294	106.579371
297.709496	106.567342
302.039780	106.555138
306.433050	106.542756
310.890221	106.531646
315.412224	106.522308
320.000000	106.512834
324.654507	106.503223
329.376716	106.493471
334.167610	106.483578
339.028190	106.473541
343.959469	106.463358
348.962474	106.453027
354.038251	106.442545
359.187855	106.431911
364.412363	106.421123
369.712863	106.415332
375.090460	106.426247
380.546277	106.437322
386.081450	106.448558
391.697134	106.459957
397.394500	106.471522
403.174736	106.483255
409.039048	106.495159
414.988657	106.507236
421.024807	106.519488
427.148753	106.531919
433.361775	106.549276
439.665167	106.568888
446.060244	106.588786
452.548340	106.608974
459.130807	106.629455
465.809019	106.650234
472.584367	106.684976
479.458265	106.729123
486.432146	106.773911
493.507464	106.817859
500.685695	106.862151
507.968337	106.906973
515.356906	106.950774
522.852945	106.995212
530.458016	107.031417
538.173706	107.046550
546.001623	107.061903
553.943399	107.077479
562.000691	107.093282
570.175180	107.109315
578.468569	107.125581
586.882588	107.142083
595.418991	107.156820
604.079560	107.169999
612.866100	107.183370
621.780442	107.196936
630.824447	107.210698
640.000000	107.224661
649.309014	107.238827
658.753431	107.253199
668.335221	107.267780
678.056380	107.279933
687.918938	107.290916
697.924949	107.302059
708.076501	107.313365
718.375711	107.324835
728.824726	107.336471
739.425726	107.348277
750.180921	107.360255
761.092554	107.372406
772.162900	107.384735
783.394268	107.397297
794.789000	107.410400
806.349472	107.423694
818.078095	107.437181
829.977315	107.450865
842.049613	107.464747
854.297507	107.478831
866.723550	107.493120
879.330334	107.507617
892.120489	107.527950
905.096680	107.564409
918.261614	107.601399
931.618037	107.638926
945.168733	107.710198
958.916529	107.794410
972.864291	107.891445
987.014928	107.918531
1001.371391	107.946012
1015.936673	107.973891
1030.713812	108.002177
1045.705890	108.041797
1060.916032	108.086023
1076.347412	108.130891
1092.003245	108.203276
1107.886798	108.277297
1124.001383	108.351138
1140.350359	108.448473
1156.937137	108.539778
1173.765175	108.613862
1190.837983	108.671441
1208.159120	108.727051
1225.732199	108.818281
1243.560885	108.899197
1261.648894	108.954547
1280.000000	109.006575
1298.618029	109.050538
1317.506863	109.095141
1336.670442	109.155696
1356.112761	109.229804
1375.837875	109.286943
1395.849898	109.342572
1416.153002	109.397818
1436.751422	109.453272
1457.649452	109.517095
1478.851452	109.591100
1500.361842	109.694070
1522.185107	109.845718
1544.325799	109.790696
1566.788535	109.734875
1589.577999	109.769462
1612.698944	109.813801
1636.156190	109.862595
1659.954630	109.936265
1684.099226	109.996102
1708.595013	110.040163
1733.447100	110.084865
1758.660669	110.175923
1784.240977	110.264683
1810.193360	110.338841
1836.523229	110.412413
1863.236074	110.486455
1890.337467	110.560264
1917.833058	110.656530
1945.728583	110.767347
1974.029857	110.921329
2002.742782	111.050464
2031.873347	111.222761
2061.427625	111.340581
2091.411780	111.505703
2121.832065	111.660946
2152.694823	111.788826
2184.006490	111.961111
2215.773596	112.074664
2248.002765	112.221868
2280.700718	112.354891
2313.874274	112.499318
2347.530351	112.699461
2381.675966	112.810349
2416.318240	112.921215
2451.464399	113.031948
2487.121769	113.204094
2523.297789	113.314961
2560.000000	113.425848
2597.236057	113.536731
2635.013726	113.610711
2673.340883	113.684713
2712.225522	113.758582
2751.675750	113.812688
2791.699796	113.856869
2832.306004	113.901692
2873.502844	113.923911
2915.298905	113.943577
2957.702904	113.963528
3000.723683	113.983770
3044.370214	114.004306
3088.651599	114.025141
3133.577071	113.880306
3179.155999	113.774250
3225.397888	113.700588
3272.312380	113.626686
3319.909260	113.552664
3368.198452	113.449104
3417.190027	113.338322
3466.894200	113.227521
3517.321337	113.063444
3568.481954	112.944355
3620.386720	112.863914
3673.046457	112.784128
3726.472148	112.674879
3780.674934	112.601308
3835.666117	112.534414
3891.457165	112.479189
3948.059713	112.423453
4005.485564	112.368401
4063.746693	112.312548
4122.855250	112.239960
4182.823560	112.165929
4243.664130	112.092103
4305.389646	112.018310
4368.012981	111.944124
4431.547192	111.870570
4496.005531	111.785600
4561.401437	111.674729
4627.748549	111.555129
4695.060701	111.411218
4763.351932	111.337135
4832.636481	111.231497
4902.928797	111.120725
4974.243539	111.009933
5046.595577	111.017339
5120.000000	111.128168
5194.472115	111.217797
5270.027452	111.261759
5346.681766	111.306361
5424.451043	111.350637
5503.351500	111.394745
5583.399591	111.439494
5664.612008	111.302430
5747.005687	111.191547
5830.597810	111.080644
5915.405808	110.969909
6001.447367	110.859161
6088.740429	110.748395
6177.303198	110.637609
6267.154142	110.468513
6358.311998	110.579267
6450.795775	110.751371
6544.624761	110.889300
6639.818520	111.110963
6736.396904	111.455514
6834.380053	111.781732
6933.788400	112.267241
7034.642675	112.734562
7136.963909	113.079072
7240.773439	113.300735
7346.092914	113.522315
7452.944296	113.743798
7561.349867	113.601993
7671.332234	113.459386
7782.914330	113.281495
7896.119426	113.059869
8010.971128	112.838443
8127.493386	112.370924
8245.710500	111.743374
8365.647121	111.163753
8487.328260	110.386644
8610.779292	109.868907
8736.025961	109.414984
8863.094385	108.789954
8992.011061	108.410172
9122.802874	108.853488
9255.497097	109.296624
9390.121402	109.796207
9526.703863	110.017851
9665.272962	110.485232
9805.857594	110.824132
9948.487077	111.237499
10093.191154	111.135156
10240.000000	110.868371
10388.944230	110.568774
10540.054903	110.347084
10693.363532	109.784217
10848.902086	109.146667
11006.703001	108.604610
11166.799182	108.121112
11329.224017	108.011101
11494.011375	107.899490
11661.195620	107.925841
11830.811616	107.970167
12002.894734	108.022735
12177.480858	108.133637
12354.606395	108.244380
12534.308283	108.340265
12716.623996	108.203069
12901.591551	107.981403
13089.249521	107.759700
13279.637040	107.538116
13472.793808	107.114634
13668.760107	106.726356
13867.576801	106.473763
14069.285350	106.153215
14273.927818	105.815696
14481.546879	105.594114
14692.185828	105.315012
14905.888592	105.027986
15122.699734	104.674007
15342.664467	104.230775
15565.828661	103.787619
15792.238852	103.344387
16021.942256	103.059877
16254.986772	102.838185
16491.420999	102.505834
16731.294241	102.272129
16974.656520	102.050517
17221.558584	101.706017
17472.051922	101.469888
17726.188769	101.139832
17984.022122	100.706302
18245.605748	100.010201
18510.994194	99.246468
18780.242805	98.499531
19053.407727	97.603016
19330.545924	96.066232
19611.715189	94.760704
19896.974155	93.390663
20186.382308	93.390663