* Measurement data measured by REW V5.31.3
* Source: Input device not selected, no input selected, L, volume: no control
* Format: 256k Log Swept Sine, 1 sweep at -12.0 dBFS with no timing reference
* Dated: Dec 2, 2024 3:28:08 PM
* REW Settings:
*  C-weighting compensation: Off
*  Target level: 75.0 dB
* Note: ; 
* Measurement: M-121i (Stock Narrow M) L
* Smoothing: 1/24 octave
* Frequency Step: 1/48 octave
* Start Frequency: 20.300 Hz
*
* Freq(Hz), SPL(dB), Phase(degrees)
20.299999, 81.128, 18.0844
20.600000, 81.145, 17.4351
20.900000, 81.150, 16.8156
21.200001, 81.145, 16.3207
21.400000, 81.138, 16.0428
21.799999, 81.129, 15.5052
22.000000, 81.127, 15.1945
22.400000, 81.128, 14.4172
22.700001, 81.129, 13.7113
23.000000, 81.128, 12.9680
23.299999, 81.129, 12.2730
23.600000, 81.135, 11.6993
24.000000, 81.155, 11.1725
24.299999, 81.180, 10.9293
24.700001, 81.218, 10.6987
25.000000, 81.242, 10.5129
25.400000, 81.255, 10.1610
25.799999, 81.244, 9.6650
26.200001, 81.210, 9.0763
26.500000, 81.179, 8.6324
26.900000, 81.143, 8.1047
27.200001, 81.127, 7.7623
27.600000, 81.126, 7.3088
28.000000, 81.136, 6.7264
28.500000, 81.131, 5.6757
29.000000, 81.079, 4.3898
29.500000, 81.005, 3.2596
30.000000, 80.980, 2.5966
30.400000, 81.027, 2.3597
30.700001, 81.088, 2.2468
31.100000, 81.169, 2.0855
31.500000, 81.205, 1.9059
32.000000, 81.166, 1.7484
32.500000, 81.084, 1.6518
33.000000, 81.031, 1.3629
33.500000, 81.028, 0.6938
34.000000, 81.047, -0.1517
34.500000, 81.065, -0.7638
35.000000, 81.084, -1.0245
35.500000, 81.100, -1.2488
36.000000, 81.084, -1.7836
36.500000, 81.020, -2.6101
37.000000, 80.943, -3.4084
37.500000, 80.912, -3.9233
38.200001, 80.953, -4.1984
38.700001, 80.976, -4.2165
39.500000, 80.909, -4.1830
40.000000, 80.830, -4.3924
40.599998, 80.744, -5.0656
41.200001, 80.702, -5.9205
41.799999, 80.733, -6.6333
42.500000, 80.804, -7.4624
43.099998, 80.773, -8.2346
43.700001, 80.640, -8.5206
44.400002, 80.594, -7.9006
45.000000, 80.788, -7.4824
45.500000, 81.016, -7.8576
46.200001, 81.182, -9.0651
46.799999, 81.123, -9.8875
47.500000, 80.940, -10.4105
48.200001, 80.751, -11.1747
48.700001, 80.616, -11.9792
49.400002, 80.430, -12.8905
50.000000, 80.320, -13.1212
50.799999, 80.274, -13.1438
51.500000, 80.262, -13.5368
52.200001, 80.225, -14.1617
53.000000, 80.181, -14.5860
53.799999, 80.174, -14.6330
54.500000, 80.172, -14.7166
55.200001, 80.147, -15.0235
56.000000, 80.109, -15.5495
57.000000, 80.069, -16.1312
58.000000, 79.993, -16.3362
59.000000, 79.927, -16.5117
60.000000, 79.915, -17.2726
60.799999, 79.893, -17.9082
61.500000, 79.846, -18.1732
62.200001, 79.790, -18.2943
63.000000, 79.736, -18.5672
64.000000, 79.688, -19.0404
65.000000, 79.655, -19.1873
66.000000, 79.631, -19.3211
67.000000, 79.573, -19.8100
68.000000, 79.497, -20.3783
69.000000, 79.427, -20.9765
70.000000, 79.369, -21.4060
71.000000, 79.341, -21.5563
72.000000, 79.307, -21.6803
73.000000, 79.248, -22.0275
74.000000, 79.186, -22.4834
75.000000, 79.140, -22.8031
76.199997, 79.077, -23.1529
77.500000, 79.005, -23.5390
78.800003, 78.963, -23.9823
80.000000, 78.914, -24.3343
81.199997, 78.849, -24.5842
82.500000, 78.775, -24.8362
83.800003, 78.727, -25.1867
85.000000, 78.685, -25.5403
86.199997, 78.633, -25.7852
87.500000, 78.574, -26.0112
88.500000, 78.521, -26.1574
90.000000, 78.447, -26.5266
91.199997, 78.397, -26.8740
92.500000, 78.339, -27.1635
93.800003, 78.278, -27.3875
95.000000, 78.231, -27.5737
96.199997, 78.189, -27.7177
97.500000, 78.140, -27.8981
98.800003, 78.080, -28.1145
100.000000, 78.027, -28.2749
101.500000, 77.968, -28.5087
103.000000, 77.903, -28.8331
104.400002, 77.840, -29.0450
106.000000, 77.779, -29.1855
107.500000, 77.730, -29.3503
109.000000, 77.682, -29.5412
110.599998, 77.628, -29.7358
112.000000, 77.567, -29.8996
113.800003, 77.489, -30.1307
115.000000, 77.443, -30.2681
117.199997, 77.377, -30.4862
118.000000, 77.356, -30.5733
120.599998, 77.274, -30.8582
122.000000, 77.222, -30.9281
124.099998, 77.138, -31.1062
125.000000, 77.111, -31.2321
126.500000, 77.073, -31.4616
128.000000, 77.031, -31.6180
131.500000, 76.928, -31.7952
132.000000, 76.913, -31.8237
134.000000, 76.848, -31.8944
136.000000, 76.784, -31.9839
138.000000, 76.709, -32.2584
140.000000, 76.645, -32.5126
143.000000, 76.590, -32.6714
145.000000, 76.551, -32.7911
147.500000, 76.487, -32.9304
150.000000, 76.414, -33.0377
152.500000, 76.354, -33.1484
155.000000, 76.307, -33.2884
157.500000, 76.241, -33.4587
160.000000, 76.164, -33.5031
162.500000, 76.095, -33.5273
165.000000, 76.049, -33.5371
167.500000, 76.010, -33.6932
170.000000, 75.954, -33.8988
172.500000, 75.891, -34.0008
175.000000, 75.843, -34.1256
177.500000, 75.802, -34.2219
180.000000, 75.764, -34.3791
182.500000, 75.728, -34.4410
185.000000, 75.694, -34.4312
187.500000, 75.657, -34.4589
190.000000, 75.617, -34.5307
192.500000, 75.574, -34.5516
195.000000, 75.536, -34.5821
197.500000, 75.497, -34.6688
200.000000, 75.451, -34.8037
203.000000, 75.399, -34.9328
206.000000, 75.366, -34.9713
209.000000, 75.333, -35.0178
212.000000, 75.293, -35.1330
214.000000, 75.261, -35.2377
218.000000, 75.206, -35.3516
220.000000, 75.185, -35.3805
224.000000, 75.143, -35.4975
227.000000, 75.105, -35.6327
230.000000, 75.076, -35.7152
233.000000, 75.042, -35.7600
236.000000, 74.999, -35.8356
240.000000, 74.956, -35.9200
243.000000, 74.932, -35.9318
247.000000, 74.903, -35.9123
250.000000, 74.879, -35.9558
254.000000, 74.842, -36.0878
258.000000, 74.806, -36.1651
262.000000, 74.778, -36.2447
265.000000, 74.751, -36.3227
269.000000, 74.716, -36.3774
272.000000, 74.694, -36.4398
276.000000, 74.673, -36.5107
280.000000, 74.645, -36.4997
285.000000, 74.619, -36.4317
290.000000, 74.598, -36.2850
295.000000, 74.574, -36.1293
300.000000, 74.580, -36.1525
304.000000, 74.607, -36.1830
307.000000, 74.632, -36.2317
311.000000, 74.659, -36.3903
315.000000, 74.669, -36.6413
320.000000, 74.666, -36.9888
325.000000, 74.662, -37.3052
330.000000, 74.654, -37.4855
335.000000, 74.642, -37.6639
340.000000, 74.633, -37.9034
345.000000, 74.627, -38.1056
350.000000, 74.625, -38.3085
355.000000, 74.612, -38.4179
360.000000, 74.597, -38.5772
365.000000, 74.588, -38.7506
370.000000, 74.582, -38.8832
375.000000, 74.581, -39.0364
382.000000, 74.590, -39.2908
387.000000, 74.599, -39.4682
395.000000, 74.617, -39.7149
400.000000, 74.625, -39.8457
406.000000, 74.630, -40.0793
412.000000, 74.635, -40.3050
418.000000, 74.635, -40.5322
425.000000, 74.643, -40.7713
431.000000, 74.658, -40.9858
437.000000, 74.675, -41.2402
444.000000, 74.687, -41.5161
450.000000, 74.696, -41.7447
455.000000, 74.707, -41.9313
462.000000, 74.722, -42.2451
468.000000, 74.734, -42.4726
475.000000, 74.754, -42.7001
482.000000, 74.771, -43.0065
487.000000, 74.782, -43.2311
494.000000, 74.797, -43.5431
500.000000, 74.809, -43.8154
508.000000, 74.824, -44.1582
515.000000, 74.838, -44.4636
522.000000, 74.856, -44.7405
530.000000, 74.879, -45.0647
538.000000, 74.894, -45.4534
545.000000, 74.903, -45.7924
552.000000, 74.915, -46.0655
560.000000, 74.931, -46.3526
570.000000, 74.942, -46.7977
580.000000, 74.950, -47.2360
590.000000, 74.962, -47.6469
600.000000, 74.969, -48.0774
608.000000, 74.973, -48.3706
615.000000, 74.983, -48.6308
622.000000, 74.995, -48.8975
630.000000, 75.000, -49.1903
640.000000, 74.999, -49.5921
650.000000, 74.996, -49.9157
660.000000, 74.991, -50.2042
670.000000, 74.984, -50.5211
680.000000, 74.980, -50.8559
690.000000, 74.977, -51.1708
700.000000, 74.973, -51.4044
710.000000, 74.973, -51.6167
720.000000, 74.966, -51.8003
730.000000, 74.958, -51.9961
740.000000, 74.951, -52.1101
750.000000, 74.938, -52.2140
762.000000, 74.928, -52.3454
775.000000, 74.925, -52.4523
788.000000, 74.922, -52.5066
800.000000, 74.914, -52.5321
812.000000, 74.908, -52.4846
825.000000, 74.906, -52.4166
838.000000, 74.911, -52.3581
850.000000, 74.926, -52.2589
862.000000, 74.942, -52.0961
875.000000, 74.958, -51.8659
885.000000, 74.978, -51.6960
900.000000, 75.016, -51.4405
912.000000, 75.050, -51.2345
925.000000, 75.095, -50.9976
938.000000, 75.147, -50.7225
950.000000, 75.202, -50.4936
962.000000, 75.262, -50.2950
975.000000, 75.332, -50.0762
988.000000, 75.404, -49.9024
1000.000000, 75.472, -49.8144
1015.000000, 75.563, -49.6114
1030.000000, 75.650, -49.4433
1044.000000, 75.733, -49.2856
1060.000000, 75.841, -49.1201
1075.000000, 75.949, -49.0069
1090.000000, 76.056, -48.9548
1106.000000, 76.167, -48.9620
1120.000000, 76.263, -49.0015
1138.000000, 76.383, -49.0983
1150.000000, 76.465, -49.1982
1172.000000, 76.619, -49.4118
1180.000000, 76.673, -49.4853
1206.000000, 76.836, -49.7388
1220.000000, 76.917, -49.9343
1241.000000, 77.034, -50.2804
1250.000000, 77.084, -50.4197
1265.000000, 77.161, -50.6483
1280.000000, 77.230, -50.8972
1315.000000, 77.393, -51.4975
1320.000000, 77.415, -51.5774
1340.000000, 77.493, -51.8828
1360.000000, 77.563, -52.1726
1380.000000, 77.625, -52.4590
1400.000000, 77.690, -52.7497
1430.000000, 77.781, -53.1279
1450.000000, 77.837, -53.3294
1475.000000, 77.903, -53.5475
1500.000000, 77.957, -53.7655
1525.000000, 78.004, -53.9541
1550.000000, 78.052, -54.1158
1575.000000, 78.099, -54.2618
1600.000000, 78.143, -54.3454
1625.000000, 78.183, -54.3516
1650.000000, 78.221, -54.2750
1675.000000, 78.258, -54.2197
1700.000000, 78.297, -54.1029
1725.000000, 78.343, -53.8751
1750.000000, 78.389, -53.6124
1775.000000, 78.440, -53.3284
1800.000000, 78.502, -52.9766
1825.000000, 78.577, -52.5780
1850.000000, 78.662, -52.2202
1875.000000, 78.756, -51.9079
1900.000000, 78.861, -51.6135
1925.000000, 78.971, -51.3289
1950.000000, 79.082, -51.0686
1975.000000, 79.199, -50.8501
2000.000000, 79.322, -50.6747
2030.000000, 79.476, -50.5311
2060.000000, 79.633, -50.4481
2090.000000, 79.789, -50.4111
2120.000000, 79.950, -50.4385
2140.000000, 80.058, -50.4825
2180.000000, 80.269, -50.6310
2200.000000, 80.374, -50.7501
2240.000000, 80.585, -51.0778
2270.000000, 80.742, -51.3997
2300.000000, 80.897, -51.7614
2330.000000, 81.051, -52.1710
2360.000000, 81.202, -52.6312
2400.000000, 81.401, -53.3342
2430.000000, 81.546, -53.9349
2470.000000, 81.728, -54.8123
2500.000000, 81.859, -55.5204
2540.000000, 82.022, -56.5139
2580.000000, 82.174, -57.5935
2620.000000, 82.312, -58.7780
2650.000000, 82.406, -59.7149
2690.000000, 82.514, -61.0055
2720.000000, 82.582, -62.0079
2760.000000, 82.660, -63.3793
2800.000000, 82.718, -64.7680
2850.000000, 82.764, -66.5219
2900.000000, 82.777, -68.2741
2950.000000, 82.760, -69.9863
3000.000000, 82.715, -71.6418
3040.000000, 82.658, -72.9081
3070.000000, 82.605, -73.8059
3110.000000, 82.524, -74.9348
3150.000000, 82.432, -75.9983
3200.000000, 82.300, -77.2044
3250.000000, 82.158, -78.2489
3300.000000, 82.008, -79.1451
3350.000000, 81.852, -79.9078
3400.000000, 81.692, -80.5566
3450.000000, 81.529, -81.0752
3500.000000, 81.373, -81.4706
3550.000000, 81.220, -81.7631
3600.000000, 81.071, -81.9481
3650.000000, 80.925, -82.0387
3700.000000, 80.787, -82.0724
3750.000000, 80.658, -82.0371
3820.000000, 80.494, -81.8643
3870.000000, 80.391, -81.6758
3950.000000, 80.255, -81.3726
4000.000000, 80.181, -81.1916
4060.000000, 80.104, -80.9957
4120.000000, 80.035, -80.8708
4180.000000, 79.967, -80.8204
4250.000000, 79.884, -80.8182
4310.000000, 79.804, -80.8721
4370.000000, 79.704, -80.9574
4440.000000, 79.563, -81.0652
4500.000000, 79.418, -81.0740
4550.000000, 79.277, -80.9371
4620.000000, 79.059, -80.3731
4680.000000, 78.883, -79.4258
4750.000000, 78.740, -77.7005
4820.000000, 78.736, -75.6141
4870.000000, 78.835, -74.3197
4940.000000, 79.066, -73.3247
5000.000000, 79.281, -73.3610
5080.000000, 79.498, -74.3761
5150.000000, 79.585, -75.7456
5220.000000, 79.573, -77.2450
5300.000000, 79.461, -78.9042
5380.000000, 79.269, -80.3294
5450.000000, 79.052, -81.3179
5520.000000, 78.800, -82.0558
5600.000000, 78.481, -82.5695
5700.000000, 78.046, -82.7360
5800.000000, 77.573, -82.3522
5900.000000, 77.086, -81.2373
6000.000000, 76.633, -79.3547
6080.000000, 76.295, -77.4003
6150.000000, 76.023, -75.3653
6220.000000, 75.794, -72.9952
6300.000000, 75.596, -69.9418
6400.000000, 75.465, -65.6216
6500.000000, 75.505, -60.9782
6600.000000, 75.738, -56.4565
6700.000000, 76.152, -52.6209
6800.000000, 76.710, -49.8372
6900.000000, 77.335, -48.3697
7000.000000, 77.944, -48.2925
7100.000000, 78.473, -49.3094
7200.000000, 78.889, -50.9834
7300.000000, 79.199, -52.9145
7400.000000, 79.426, -54.8660
7500.000000, 79.611, -56.7818
7620.000000, 79.821, -59.1571
7750.000000, 80.036, -62.2462
7880.000000, 80.182, -66.2417
8000.000000, 80.167, -70.6967
8120.000000, 79.950, -75.4293
8250.000000, 79.486, -80.2328
8380.000000, 78.828, -84.3611
8500.000000, 78.051, -87.4220
8620.000000, 77.098, -89.2691
8750.000000, 75.942, -89.1609
8850.000000, 75.058, -87.3126
9000.000000, 73.905, -81.9025
9120.000000, 73.230, -75.7962
9250.000000, 72.818, -68.0699
9380.000000, 72.771, -59.8980
9500.000000, 73.054, -52.5659
9620.000000, 73.634, -45.8671
9750.000000, 74.600, -39.6718
9880.000000, 75.894, -35.5461
10000.000000, 77.260, -34.3847
10150.000000, 78.995, -36.9695
10300.000000, 80.472, -44.0278
10440.000000, 81.340, -53.6039
10600.000000, 81.566, -65.5135
10750.000000, 81.155, -75.0821
10900.000000, 80.430, -81.8143
11060.000000, 79.609, -85.9878
11200.000000, 79.002, -87.8353
11380.000000, 78.456, -89.0009
11500.000000, 78.238, -89.6582
11720.000000, 78.036, -91.8383
11800.000000, 77.967, -93.0957
12060.000000, 77.533, -97.4183
12200.000000, 77.229, -99.1575
12410.000000, 76.918, -99.9225
12500.000000, 77.038, -100.1411
12650.000000, 77.338, -104.2302
12800.000000, 77.048, -110.7932
13150.000000, 75.308, -118.1821
13200.000000, 75.090, -118.5389
13400.000000, 74.382, -119.4914
13600.000000, 73.914, -120.5509
13800.000000, 73.606, -122.7235
14000.000000, 73.295, -126.5512
14300.000000, 72.455, -134.7405
14500.000000, 71.484, -140.3166
14750.000000, 69.868, -145.0540
15000.000000, 68.087, -146.2829
15250.000000, 66.440, -144.3260
15500.000000, 65.147, -140.0291
15750.000000, 64.290, -135.1898
16000.000000, 63.799, -131.0330
16250.000000, 63.580, -128.3668
16500.000000, 63.472, -127.8804
16750.000000, 63.303, -129.5372
17000.000000, 62.863, -132.8507
17250.000000, 62.048, -136.4286
17500.000000, 60.844, -138.7246
17750.000000, 59.325, -139.1855
18000.000000, 57.637, -136.4875
18250.000000, 56.214, -128.6642
18500.000000, 55.500, -120.9290
18750.000000, 54.985, -118.1579
19000.000000, 54.419, -118.3310
19250.000000, 53.732, -121.0652
19500.000000, 52.763, -126.8172
19750.000000, 51.592, -134.9090
