* Measurement data measured by REW V5.31.3
* Source: Input device not selected, no input selected, L, volume: no control
* Format: 256k Log Swept Sine, 1 sweep at -12.0 dBFS with no timing reference
* Dated: Dec 2, 2024 8:06:57 PM
* REW Settings:
*  C-weighting compensation: Off
*  Target level: 75.0 dB
* Note: ; 
* Measurement: M-121i (BGVP Foam M) L
* Smoothing: 1/24 octave
* Frequency Step: 1/48 octave
* Start Frequency: 20.300 Hz
*
* Freq(Hz), SPL(dB), Phase(degrees)
20.299999, 81.567, 17.6331
20.600000, 81.556, 17.1150
20.900000, 81.552, 16.4852
21.200001, 81.560, 15.7993
21.400000, 81.571, 15.3301
21.799999, 81.598, 14.4439
22.000000, 81.612, 14.0636
22.400000, 81.641, 13.4711
22.700001, 81.666, 13.1466
23.000000, 81.694, 12.8545
23.299999, 81.721, 12.5192
23.600000, 81.742, 12.0893
24.000000, 81.749, 11.3641
24.299999, 81.736, 10.7571
24.700001, 81.701, 9.9719
25.000000, 81.670, 9.4554
25.400000, 81.636, 8.8765
25.799999, 81.617, 8.3675
26.200001, 81.612, 7.8450
26.500000, 81.613, 7.4112
26.900000, 81.618, 6.7739
27.200001, 81.621, 6.2711
27.600000, 81.626, 5.6098
28.000000, 81.631, 5.0048
28.500000, 81.633, 4.3695
29.000000, 81.629, 3.8508
29.500000, 81.617, 3.3660
30.000000, 81.598, 2.8264
30.400000, 81.580, 2.3395
30.700001, 81.566, 1.9594
31.100000, 81.548, 1.4656
31.500000, 81.532, 1.0151
32.000000, 81.515, 0.5166
32.500000, 81.495, 0.0536
33.000000, 81.469, -0.4165
33.500000, 81.442, -0.9168
34.000000, 81.422, -1.4609
34.500000, 81.413, -2.0554
35.000000, 81.406, -2.6804
35.500000, 81.391, -3.2799
36.000000, 81.368, -3.7965
36.500000, 81.347, -4.2204
37.000000, 81.336, -4.6003
37.500000, 81.330, -4.9944
38.200001, 81.303, -5.5787
38.700001, 81.264, -5.9680
39.500000, 81.195, -6.5159
40.000000, 81.169, -6.8793
40.599998, 81.152, -7.3856
41.200001, 81.136, -7.9271
41.799999, 81.109, -8.4523
42.500000, 81.068, -9.0473
43.099998, 81.035, -9.5368
43.700001, 81.013, -9.9544
44.400002, 80.998, -10.3454
45.000000, 80.979, -10.6927
45.500000, 80.949, -11.0428
46.200001, 80.893, -11.5878
46.799999, 80.853, -12.0326
47.500000, 80.823, -12.4859
48.200001, 80.790, -12.8683
48.700001, 80.759, -13.1071
49.400002, 80.718, -13.4511
50.000000, 80.691, -13.8024
50.799999, 80.651, -14.2821
51.500000, 80.600, -14.6234
52.200001, 80.549, -14.9653
53.000000, 80.504, -15.4482
53.799999, 80.470, -15.9141
54.500000, 80.437, -16.2672
55.200001, 80.389, -16.6378
56.000000, 80.332, -17.0641
57.000000, 80.280, -17.4588
58.000000, 80.189, -17.7851
59.000000, 80.059, -18.3390
60.000000, 80.011, -19.0413
60.799999, 80.037, -19.4111
61.500000, 80.040, -19.6047
62.200001, 79.995, -19.7668
63.000000, 79.934, -19.9916
64.000000, 79.893, -20.4532
65.000000, 79.812, -20.9005
66.000000, 79.718, -21.1780
67.000000, 79.696, -21.5800
68.000000, 79.691, -21.9212
69.000000, 79.650, -22.2078
70.000000, 79.585, -22.6574
71.000000, 79.530, -22.9985
72.000000, 79.486, -23.1999
73.000000, 79.432, -23.4927
74.000000, 79.379, -23.8326
75.000000, 79.328, -24.0563
76.199997, 79.267, -24.2650
77.500000, 79.202, -24.6856
78.800003, 79.127, -25.1254
80.000000, 79.066, -25.3978
81.199997, 79.012, -25.6248
82.500000, 78.946, -25.9346
83.800003, 78.874, -26.1893
85.000000, 78.808, -26.4025
86.199997, 78.756, -26.7023
87.500000, 78.714, -27.0379
88.500000, 78.667, -27.1987
90.000000, 78.594, -27.3804
91.199997, 78.543, -27.6378
92.500000, 78.489, -27.9158
93.800003, 78.432, -28.1603
95.000000, 78.383, -28.3262
96.199997, 78.335, -28.4868
97.500000, 78.275, -28.6711
98.800003, 78.210, -28.8606
100.000000, 78.147, -29.0218
101.500000, 78.078, -29.2321
103.000000, 78.019, -29.3904
104.400002, 77.963, -29.6092
106.000000, 77.915, -29.8594
107.500000, 77.873, -30.0494
109.000000, 77.817, -30.2817
110.599998, 77.749, -30.4257
112.000000, 77.687, -30.5241
113.800003, 77.611, -30.7148
115.000000, 77.563, -30.8824
117.199997, 77.484, -31.0887
118.000000, 77.458, -31.1131
120.599998, 77.379, -31.2403
122.000000, 77.331, -31.3736
124.099998, 77.255, -31.5801
125.000000, 77.222, -31.6912
126.500000, 77.176, -31.8515
128.000000, 77.133, -31.9063
131.500000, 77.010, -32.0930
132.000000, 76.992, -32.1219
134.000000, 76.939, -32.2139
136.000000, 76.891, -32.3162
138.000000, 76.821, -32.4288
140.000000, 76.757, -32.5963
143.000000, 76.662, -32.8681
145.000000, 76.619, -32.8997
147.500000, 76.550, -33.0118
150.000000, 76.482, -33.0316
152.500000, 76.431, -32.9474
155.000000, 76.383, -33.0228
157.500000, 76.328, -33.0919
160.000000, 76.266, -33.2011
162.500000, 76.199, -33.2558
165.000000, 76.145, -33.4058
167.500000, 76.094, -33.5692
170.000000, 76.028, -33.6914
172.500000, 75.972, -33.8197
175.000000, 75.926, -33.8456
177.500000, 75.884, -33.8052
180.000000, 75.836, -33.8479
182.500000, 75.786, -34.0773
185.000000, 75.736, -34.1944
187.500000, 75.695, -34.2113
190.000000, 75.655, -34.2002
192.500000, 75.609, -34.1969
195.000000, 75.569, -34.2647
197.500000, 75.531, -34.3815
200.000000, 75.497, -34.4673
203.000000, 75.458, -34.4511
206.000000, 75.421, -34.4066
209.000000, 75.380, -34.5593
212.000000, 75.331, -34.7454
214.000000, 75.307, -34.7527
218.000000, 75.265, -34.6519
220.000000, 75.240, -34.6139
224.000000, 75.190, -34.7028
227.000000, 75.158, -34.8019
230.000000, 75.127, -34.8357
233.000000, 75.093, -34.8313
236.000000, 75.061, -34.8692
240.000000, 75.023, -34.9398
243.000000, 74.995, -34.9364
247.000000, 74.969, -34.9505
250.000000, 74.942, -34.9508
254.000000, 74.902, -34.9350
258.000000, 74.874, -35.0351
262.000000, 74.846, -35.1882
265.000000, 74.825, -35.2424
269.000000, 74.795, -35.2648
272.000000, 74.770, -35.3129
276.000000, 74.743, -35.3782
280.000000, 74.719, -35.3974
285.000000, 74.709, -35.4914
290.000000, 74.696, -35.6506
295.000000, 74.676, -35.7343
300.000000, 74.662, -35.7782
304.000000, 74.643, -35.7896
307.000000, 74.627, -35.8091
311.000000, 74.617, -35.8776
315.000000, 74.612, -36.0092
320.000000, 74.590, -36.1132
325.000000, 74.570, -36.1772
330.000000, 74.568, -36.3298
335.000000, 74.567, -36.4552
340.000000, 74.560, -36.4912
345.000000, 74.550, -36.5564
350.000000, 74.540, -36.5788
355.000000, 74.542, -36.6654
360.000000, 74.543, -36.8126
365.000000, 74.542, -36.9384
370.000000, 74.546, -37.0480
375.000000, 74.551, -37.1368
382.000000, 74.546, -37.3251
387.000000, 74.550, -37.4413
395.000000, 74.558, -37.6030
400.000000, 74.565, -37.6904
406.000000, 74.570, -37.8271
412.000000, 74.576, -37.9927
418.000000, 74.593, -38.2295
425.000000, 74.605, -38.3774
431.000000, 74.615, -38.4878
437.000000, 74.630, -38.6080
444.000000, 74.640, -38.8212
450.000000, 74.652, -39.0259
455.000000, 74.668, -39.1500
462.000000, 74.688, -39.3961
468.000000, 74.702, -39.6334
475.000000, 74.716, -39.7979
482.000000, 74.727, -39.9848
487.000000, 74.734, -40.1711
494.000000, 74.752, -40.4394
500.000000, 74.776, -40.6435
508.000000, 74.807, -40.9243
515.000000, 74.827, -41.1259
522.000000, 74.838, -41.3314
530.000000, 74.855, -41.6612
538.000000, 74.873, -41.9667
545.000000, 74.885, -42.2192
552.000000, 74.897, -42.4845
560.000000, 74.909, -42.8153
570.000000, 74.925, -43.2133
580.000000, 74.938, -43.5445
590.000000, 74.954, -43.8613
600.000000, 74.970, -44.1658
608.000000, 74.972, -44.4467
615.000000, 74.971, -44.6968
622.000000, 74.970, -44.8997
630.000000, 74.975, -45.0888
640.000000, 74.980, -45.3373
650.000000, 74.980, -45.6167
660.000000, 74.978, -45.9172
670.000000, 74.978, -46.1299
680.000000, 74.978, -46.3009
690.000000, 74.981, -46.4584
700.000000, 74.975, -46.5974
710.000000, 74.964, -46.7867
720.000000, 74.951, -46.9619
730.000000, 74.944, -47.0355
740.000000, 74.943, -47.0995
750.000000, 74.939, -47.1772
762.000000, 74.936, -47.2044
775.000000, 74.926, -47.1975
788.000000, 74.909, -47.0679
800.000000, 74.903, -46.9557
812.000000, 74.906, -46.8512
825.000000, 74.922, -46.7818
838.000000, 74.940, -46.6224
850.000000, 74.947, -46.4048
862.000000, 74.955, -46.1628
875.000000, 74.972, -45.9231
885.000000, 74.990, -45.7250
900.000000, 75.032, -45.3925
912.000000, 75.063, -45.1315
925.000000, 75.095, -44.8092
938.000000, 75.139, -44.4777
950.000000, 75.187, -44.2277
962.000000, 75.237, -43.9818
975.000000, 75.297, -43.6873
988.000000, 75.365, -43.3741
1000.000000, 75.433, -43.1488
1015.000000, 75.510, -42.9416
1030.000000, 75.586, -42.7375
1044.000000, 75.661, -42.5395
1060.000000, 75.754, -42.2702
1075.000000, 75.841, -42.0654
1090.000000, 75.931, -41.9266
1106.000000, 76.027, -41.7913
1120.000000, 76.112, -41.7134
1138.000000, 76.228, -41.6559
1150.000000, 76.304, -41.6483
1172.000000, 76.429, -41.6746
1180.000000, 76.472, -41.6824
1206.000000, 76.607, -41.7024
1220.000000, 76.681, -41.7554
1241.000000, 76.789, -41.8793
1250.000000, 76.831, -41.9386
1265.000000, 76.893, -42.0257
1280.000000, 76.955, -42.0924
1315.000000, 77.090, -42.2273
1320.000000, 77.107, -42.2467
1340.000000, 77.176, -42.3218
1360.000000, 77.246, -42.3879
1380.000000, 77.305, -42.4530
1400.000000, 77.358, -42.5320
1430.000000, 77.436, -42.5839
1450.000000, 77.483, -42.5535
1475.000000, 77.540, -42.5384
1500.000000, 77.596, -42.4845
1525.000000, 77.646, -42.4063
1550.000000, 77.689, -42.3199
1575.000000, 77.728, -42.1571
1600.000000, 77.768, -41.9555
1625.000000, 77.806, -41.7230
1650.000000, 77.841, -41.4231
1675.000000, 77.873, -41.0611
1700.000000, 77.910, -40.6512
1725.000000, 77.948, -40.1884
1750.000000, 77.995, -39.6449
1775.000000, 78.048, -39.0806
1800.000000, 78.112, -38.5041
1825.000000, 78.185, -37.8733
1850.000000, 78.271, -37.2539
1875.000000, 78.369, -36.6621
1900.000000, 78.470, -36.1104
1925.000000, 78.576, -35.5819
1950.000000, 78.693, -35.0717
1975.000000, 78.819, -34.6031
2000.000000, 78.948, -34.1668
2030.000000, 79.101, -33.7339
2060.000000, 79.255, -33.3474
2090.000000, 79.413, -33.0133
2120.000000, 79.573, -32.7460
2140.000000, 79.681, -32.6001
2180.000000, 79.895, -32.3949
2200.000000, 80.001, -32.3140
2240.000000, 80.212, -32.2114
2270.000000, 80.371, -32.2035
2300.000000, 80.531, -32.2370
2330.000000, 80.686, -32.3408
2360.000000, 80.836, -32.5287
2400.000000, 81.031, -32.8478
2430.000000, 81.174, -33.1161
2470.000000, 81.356, -33.5584
2500.000000, 81.486, -33.9715
2540.000000, 81.648, -34.5985
2580.000000, 81.801, -35.2786
2620.000000, 81.941, -36.0513
2650.000000, 82.034, -36.6926
2690.000000, 82.142, -37.5921
2720.000000, 82.211, -38.2807
2760.000000, 82.286, -39.2247
2800.000000, 82.342, -40.2123
2850.000000, 82.385, -41.4480
2900.000000, 82.397, -42.6762
2950.000000, 82.379, -43.8580
3000.000000, 82.333, -44.9759
3040.000000, 82.278, -45.8122
3070.000000, 82.227, -46.3876
3110.000000, 82.147, -47.0845
3150.000000, 82.056, -47.6980
3200.000000, 81.929, -48.3655
3250.000000, 81.788, -48.9137
3300.000000, 81.639, -49.3219
3350.000000, 81.486, -49.5959
3400.000000, 81.332, -49.7311
3450.000000, 81.180, -49.7471
3500.000000, 81.032, -49.6655
3550.000000, 80.884, -49.4706
3600.000000, 80.739, -49.1616
3650.000000, 80.602, -48.7678
3700.000000, 80.474, -48.3164
3750.000000, 80.353, -47.8355
3820.000000, 80.196, -47.0683
3870.000000, 80.096, -46.4334
3950.000000, 79.952, -45.4031
4000.000000, 79.869, -44.7635
4060.000000, 79.776, -43.9900
4120.000000, 79.694, -43.2174
4180.000000, 79.622, -42.4439
4250.000000, 79.537, -41.5773
4310.000000, 79.458, -40.8759
4370.000000, 79.372, -40.1845
4440.000000, 79.254, -39.3244
4500.000000, 79.130, -38.5071
4550.000000, 79.010, -37.7182
4620.000000, 78.827, -36.2713
4680.000000, 78.677, -34.5197
4750.000000, 78.566, -31.8369
4820.000000, 78.606, -28.7610
4870.000000, 78.749, -26.7169
4940.000000, 79.065, -24.6617
5000.000000, 79.362, -23.8635
5080.000000, 79.696, -23.9219
5150.000000, 79.892, -24.5380
5220.000000, 80.000, -25.3704
5300.000000, 80.030, -26.3703
5380.000000, 79.974, -27.3071
5450.000000, 79.870, -27.9629
5520.000000, 79.724, -28.4051
5600.000000, 79.507, -28.6203
5700.000000, 79.185, -28.3791
5800.000000, 78.824, -27.5446
5900.000000, 78.450, -25.9487
6000.000000, 78.099, -23.6423
6080.000000, 77.853, -21.3694
6150.000000, 77.669, -19.0681
6220.000000, 77.526, -16.4661
6300.000000, 77.421, -13.1605
6400.000000, 77.412, -8.6065
6500.000000, 77.580, -3.8003
6600.000000, 77.949, 0.7638
6700.000000, 78.509, 4.5963
6800.000000, 79.222, 7.2213
6900.000000, 80.014, 8.2770
7000.000000, 80.788, 7.6979
7100.000000, 81.474, 5.6965
7200.000000, 82.034, 2.6234
7300.000000, 82.454, -1.1813
7400.000000, 82.729, -5.5751
7500.000000, 82.852, -10.4560
7620.000000, 82.763, -16.7654
7750.000000, 82.310, -23.6509
7880.000000, 81.470, -29.5854
8000.000000, 80.428, -33.1164
8120.000000, 79.296, -34.1782
8250.000000, 78.186, -32.9791
8380.000000, 77.310, -30.7495
8500.000000, 76.631, -28.6500
8620.000000, 75.956, -26.3853
8750.000000, 75.234, -22.9966
8850.000000, 74.750, -19.5149
9000.000000, 74.264, -13.1347
9120.000000, 74.154, -7.7720
9250.000000, 74.322, -2.6390
9380.000000, 74.729, 0.8272
9500.000000, 75.180, 1.9826
9620.000000, 75.543, 1.2158
9750.000000, 75.713, -0.9964
9880.000000, 75.612, -3.6793
10000.000000, 75.290, -5.8989
10150.000000, 74.659, -7.4885
10300.000000, 73.930, -7.3774
10440.000000, 73.281, -5.9320
10600.000000, 72.649, -3.0919
10750.000000, 72.184, 0.1699
10900.000000, 71.833, 3.6022
11060.000000, 71.579, 7.3425
11200.000000, 71.452, 10.5428
11380.000000, 71.415, 14.1906
11500.000000, 71.455, 16.0704
11720.000000, 71.541, 18.0690
11800.000000, 71.532, 18.4643
12060.000000, 71.297, 19.7741
12200.000000, 71.104, 20.8065
12410.000000, 70.949, 24.2236
12500.000000, 71.102, 25.6757
12650.000000, 71.403, 24.7321
12800.000000, 71.166, 21.7042
13150.000000, 69.644, 22.3799
13200.000000, 69.446, 23.2327
13400.000000, 68.779, 27.6117
13600.000000, 68.312, 32.9755
13800.000000, 68.083, 38.7644
14000.000000, 68.091, 44.5680
14300.000000, 68.595, 52.5012
14500.000000, 69.226, 56.3893
14750.000000, 70.201, 58.3188
15000.000000, 71.157, 56.5968
15250.000000, 71.797, 51.9556
15500.000000, 72.002, 46.3321
15750.000000, 71.916, 41.3228
16000.000000, 71.730, 37.1632
16250.000000, 71.549, 33.2187
16500.000000, 71.342, 28.5522
16750.000000, 70.986, 22.9319
17000.000000, 70.338, 16.8475
17250.000000, 69.337, 11.2239
17500.000000, 68.009, 6.9690
17750.000000, 66.454, 4.5429
18000.000000, 64.776, 4.3594
18250.000000, 63.223, 6.5444
18500.000000, 62.012, 7.0807
18750.000000, 60.633, 5.1412
19000.000000, 58.947, 2.3334
19250.000000, 56.987, -1.8980
19500.000000, 54.634, -7.9117
19750.000000, 51.908, -14.3170
