* Measurement data measured by REW V5.31.3
* Source: Input device not selected, no input selected, L, volume: no control
* Format: 256k Log Swept Sine, 1 sweep at -12.0 dBFS with no timing reference
* Dated: Dec 3, 2024 12:12:44 AM
* REW Settings:
*  C-weighting compensation: Off
*  Target level: 75.0 dB
* Note: ; 
* Measurement: M-121i (Spiral Dots M) L
* Smoothing: 1/24 octave
* Frequency Step: 1/48 octave
* Start Frequency: 20.300 Hz
*
* Freq(Hz), SPL(dB), Phase(degrees)
20.299999, 81.433, 16.9862
20.600000, 81.433, 16.4620
20.900000, 81.426, 16.0105
21.200001, 81.421, 15.6833
21.400000, 81.421, 15.4978
21.799999, 81.426, 15.0774
22.000000, 81.424, 14.8015
22.400000, 81.398, 14.1100
22.700001, 81.355, 13.5319
23.000000, 81.302, 12.9822
23.299999, 81.257, 12.5061
23.600000, 81.237, 12.0940
24.000000, 81.267, 11.5467
24.299999, 81.322, 11.0638
24.700001, 81.405, 10.3091
25.000000, 81.452, 9.7239
25.400000, 81.480, 9.0443
25.799999, 81.475, 8.5364
26.200001, 81.458, 8.1027
26.500000, 81.442, 7.7146
26.900000, 81.411, 7.0231
27.200001, 81.376, 6.4075
27.600000, 81.319, 5.6171
28.000000, 81.278, 5.0403
28.500000, 81.311, 4.6102
29.000000, 81.448, 4.0690
29.500000, 81.591, 3.0725
30.000000, 81.614, 1.9377
30.400000, 81.521, 1.4596
30.700001, 81.413, 1.5707
31.100000, 81.275, 2.3417
31.500000, 81.204, 3.4383
32.000000, 81.221, 4.3511
32.500000, 81.277, 4.0697
33.000000, 81.295, 2.6949
33.500000, 81.264, 0.8167
34.000000, 81.217, -0.9578
34.500000, 81.177, -2.1982
35.000000, 81.162, -2.7103
35.500000, 81.198, -2.6701
36.000000, 81.292, -2.6479
36.500000, 81.385, -3.2073
37.000000, 81.385, -4.3403
37.500000, 81.253, -5.4398
38.200001, 80.983, -5.8282
38.700001, 80.881, -5.4446
39.500000, 80.911, -5.2787
40.000000, 80.943, -5.5345
40.599998, 80.970, -5.6406
41.200001, 81.034, -5.6855
41.799999, 81.092, -6.4267
42.500000, 81.024, -8.2185
43.099998, 80.879, -9.5939
43.700001, 80.801, -10.1641
44.400002, 80.858, -10.2912
45.000000, 80.910, -10.5603
45.500000, 80.882, -10.9441
46.200001, 80.786, -11.5170
46.799999, 80.753, -12.0144
47.500000, 80.782, -12.6021
48.200001, 80.771, -12.9181
48.700001, 80.706, -12.8716
49.400002, 80.592, -12.7549
50.000000, 80.541, -13.0710
50.799999, 80.540, -14.0559
51.500000, 80.534, -14.6881
52.200001, 80.491, -14.8109
53.000000, 80.422, -14.9863
53.799999, 80.365, -15.6774
54.500000, 80.330, -16.2619
55.200001, 80.293, -16.5024
56.000000, 80.210, -16.7985
57.000000, 80.042, -17.7412
58.000000, 80.003, -18.4284
59.000000, 80.094, -18.7627
60.000000, 80.045, -18.8999
60.799999, 79.981, -18.8060
61.500000, 79.987, -18.9457
62.200001, 80.008, -19.4403
63.000000, 79.961, -20.2113
64.000000, 79.796, -20.9240
65.000000, 79.682, -21.0633
66.000000, 79.684, -21.1555
67.000000, 79.666, -21.4222
68.000000, 79.608, -21.7320
69.000000, 79.542, -22.1179
70.000000, 79.469, -22.3692
71.000000, 79.409, -22.6129
72.000000, 79.357, -23.0315
73.000000, 79.318, -23.3703
74.000000, 79.281, -23.6083
75.000000, 79.225, -23.8867
76.199997, 79.166, -24.2658
77.500000, 79.111, -24.5832
78.800003, 79.052, -24.7705
80.000000, 78.999, -24.9717
81.199997, 78.926, -25.1989
82.500000, 78.845, -25.5540
83.800003, 78.779, -25.8642
85.000000, 78.729, -26.0679
86.199997, 78.680, -26.3722
87.500000, 78.618, -26.7217
88.500000, 78.562, -26.9702
90.000000, 78.487, -27.3277
91.199997, 78.446, -27.5179
92.500000, 78.407, -27.6452
93.800003, 78.348, -27.8765
95.000000, 78.287, -28.2049
96.199997, 78.225, -28.5040
97.500000, 78.158, -28.6963
98.800003, 78.102, -28.8045
100.000000, 78.057, -28.8722
101.500000, 77.987, -29.0704
103.000000, 77.924, -29.3032
104.400002, 77.878, -29.4705
106.000000, 77.829, -29.6793
107.500000, 77.791, -29.9663
109.000000, 77.736, -30.1714
110.599998, 77.651, -30.3178
112.000000, 77.590, -30.5267
113.800003, 77.516, -30.6663
115.000000, 77.463, -30.7175
117.199997, 77.382, -30.8411
118.000000, 77.360, -30.9428
120.599998, 77.287, -31.2043
122.000000, 77.230, -31.2514
124.099998, 77.146, -31.3617
125.000000, 77.114, -31.4038
126.500000, 77.065, -31.4887
128.000000, 77.019, -31.6346
131.500000, 76.915, -31.8773
132.000000, 76.901, -31.9131
134.000000, 76.848, -32.0411
136.000000, 76.790, -32.1558
138.000000, 76.728, -32.3019
140.000000, 76.675, -32.4319
143.000000, 76.583, -32.5699
145.000000, 76.520, -32.6699
147.500000, 76.451, -32.7887
150.000000, 76.391, -32.9738
152.500000, 76.335, -32.9744
155.000000, 76.275, -32.9795
157.500000, 76.211, -33.1532
160.000000, 76.150, -33.3088
162.500000, 76.087, -33.4079
165.000000, 76.027, -33.4783
167.500000, 75.981, -33.5586
170.000000, 75.926, -33.6178
172.500000, 75.863, -33.5942
175.000000, 75.818, -33.6430
177.500000, 75.788, -33.7800
180.000000, 75.754, -33.8889
182.500000, 75.709, -33.9533
185.000000, 75.654, -33.9721
187.500000, 75.603, -34.0062
190.000000, 75.550, -34.0612
192.500000, 75.500, -34.1242
195.000000, 75.461, -34.1323
197.500000, 75.424, -34.1554
200.000000, 75.380, -34.1847
203.000000, 75.331, -34.2396
206.000000, 75.291, -34.3230
209.000000, 75.256, -34.3907
212.000000, 75.219, -34.3888
214.000000, 75.192, -34.3679
218.000000, 75.137, -34.3680
220.000000, 75.109, -34.3955
224.000000, 75.059, -34.4666
227.000000, 75.021, -34.5040
230.000000, 74.977, -34.5051
233.000000, 74.938, -34.5067
236.000000, 74.903, -34.4982
240.000000, 74.863, -34.5003
243.000000, 74.832, -34.4292
247.000000, 74.786, -34.2520
250.000000, 74.758, -34.1604
254.000000, 74.731, -34.2147
258.000000, 74.711, -34.2631
262.000000, 74.711, -34.1304
265.000000, 74.713, -34.0034
269.000000, 74.707, -33.8527
272.000000, 74.707, -33.7828
276.000000, 74.715, -33.8139
280.000000, 74.736, -33.9818
285.000000, 74.766, -34.1891
290.000000, 74.780, -34.4198
295.000000, 74.770, -34.7059
300.000000, 74.744, -34.8823
304.000000, 74.720, -35.0679
307.000000, 74.702, -35.1964
311.000000, 74.684, -35.3258
315.000000, 74.678, -35.4852
320.000000, 74.673, -35.6716
325.000000, 74.655, -35.8254
330.000000, 74.639, -35.9617
335.000000, 74.629, -36.0930
340.000000, 74.618, -36.2010
345.000000, 74.610, -36.3212
350.000000, 74.603, -36.4220
355.000000, 74.595, -36.5338
360.000000, 74.586, -36.6741
365.000000, 74.577, -36.8345
370.000000, 74.573, -36.9738
375.000000, 74.581, -37.1117
382.000000, 74.595, -37.2935
387.000000, 74.589, -37.3801
395.000000, 74.586, -37.5493
400.000000, 74.588, -37.7014
406.000000, 74.595, -37.8309
412.000000, 74.612, -37.9580
418.000000, 74.625, -38.1457
425.000000, 74.627, -38.3837
431.000000, 74.632, -38.5379
437.000000, 74.643, -38.6966
444.000000, 74.659, -38.8954
450.000000, 74.671, -39.0835
455.000000, 74.681, -39.2536
462.000000, 74.698, -39.4962
468.000000, 74.708, -39.7012
475.000000, 74.723, -39.9706
482.000000, 74.741, -40.1806
487.000000, 74.752, -40.3226
494.000000, 74.768, -40.5618
500.000000, 74.782, -40.7607
508.000000, 74.799, -41.0004
515.000000, 74.814, -41.2653
522.000000, 74.831, -41.5460
530.000000, 74.848, -41.8525
538.000000, 74.853, -42.1297
545.000000, 74.860, -42.3565
552.000000, 74.875, -42.5695
560.000000, 74.896, -42.8249
570.000000, 74.913, -43.2199
580.000000, 74.923, -43.6103
590.000000, 74.933, -43.9066
600.000000, 74.949, -44.2298
608.000000, 74.956, -44.4831
615.000000, 74.959, -44.6854
622.000000, 74.960, -44.9010
630.000000, 74.963, -45.1629
640.000000, 74.970, -45.4909
650.000000, 74.973, -45.7508
660.000000, 74.974, -45.9262
670.000000, 74.974, -46.1339
680.000000, 74.969, -46.3506
690.000000, 74.963, -46.5716
700.000000, 74.955, -46.7810
710.000000, 74.948, -46.9370
720.000000, 74.940, -47.0562
730.000000, 74.932, -47.1553
740.000000, 74.925, -47.2177
750.000000, 74.922, -47.2475
762.000000, 74.916, -47.2416
775.000000, 74.902, -47.2183
788.000000, 74.892, -47.1659
800.000000, 74.893, -47.1027
812.000000, 74.896, -46.9533
825.000000, 74.905, -46.7509
838.000000, 74.913, -46.5622
850.000000, 74.918, -46.4109
862.000000, 74.934, -46.2114
875.000000, 74.962, -45.9280
885.000000, 74.981, -45.6992
900.000000, 75.015, -45.3645
912.000000, 75.051, -45.0993
925.000000, 75.095, -44.8168
938.000000, 75.141, -44.5251
950.000000, 75.187, -44.2490
962.000000, 75.240, -43.9739
975.000000, 75.304, -43.6869
988.000000, 75.369, -43.4056
1000.000000, 75.433, -43.1512
1015.000000, 75.514, -42.9144
1030.000000, 75.593, -42.6925
1044.000000, 75.664, -42.4862
1060.000000, 75.758, -42.2466
1075.000000, 75.858, -42.0409
1090.000000, 75.959, -41.8848
1106.000000, 76.067, -41.7815
1120.000000, 76.162, -41.7113
1138.000000, 76.277, -41.6727
1150.000000, 76.352, -41.6812
1172.000000, 76.485, -41.7437
1180.000000, 76.532, -41.7792
1206.000000, 76.677, -41.8848
1220.000000, 76.748, -41.9796
1241.000000, 76.853, -42.1526
1250.000000, 76.898, -42.2322
1265.000000, 76.966, -42.3492
1280.000000, 77.028, -42.4585
1315.000000, 77.168, -42.6835
1320.000000, 77.187, -42.7153
1340.000000, 77.255, -42.8416
1360.000000, 77.322, -42.9779
1380.000000, 77.382, -43.0907
1400.000000, 77.438, -43.1835
1430.000000, 77.516, -43.2905
1450.000000, 77.564, -43.3082
1475.000000, 77.619, -43.3144
1500.000000, 77.672, -43.2910
1525.000000, 77.720, -43.2439
1550.000000, 77.764, -43.1789
1575.000000, 77.808, -43.0436
1600.000000, 77.846, -42.8657
1625.000000, 77.879, -42.6349
1650.000000, 77.911, -42.3691
1675.000000, 77.945, -42.0648
1700.000000, 77.981, -41.6824
1725.000000, 78.016, -41.2199
1750.000000, 78.055, -40.7118
1775.000000, 78.109, -40.1527
1800.000000, 78.174, -39.5638
1825.000000, 78.248, -38.9691
1850.000000, 78.332, -38.3887
1875.000000, 78.427, -37.7947
1900.000000, 78.529, -37.2269
1925.000000, 78.637, -36.7050
1950.000000, 78.753, -36.2319
1975.000000, 78.872, -35.7880
2000.000000, 78.993, -35.3840
2030.000000, 79.143, -34.9603
2060.000000, 79.295, -34.5840
2090.000000, 79.449, -34.2631
2120.000000, 79.607, -33.9760
2140.000000, 79.711, -33.8214
2180.000000, 79.922, -33.5912
2200.000000, 80.029, -33.5131
2240.000000, 80.241, -33.4154
2270.000000, 80.399, -33.4111
2300.000000, 80.554, -33.4664
2330.000000, 80.707, -33.5683
2360.000000, 80.857, -33.7234
2400.000000, 81.049, -34.0404
2430.000000, 81.189, -34.3534
2470.000000, 81.371, -34.8158
2500.000000, 81.500, -35.2143
2540.000000, 81.662, -35.8219
2580.000000, 81.810, -36.4971
2620.000000, 81.949, -37.2506
2650.000000, 82.044, -37.8674
2690.000000, 82.155, -38.7597
2720.000000, 82.227, -39.4664
2760.000000, 82.306, -40.4440
2800.000000, 82.363, -41.4608
2850.000000, 82.404, -42.7534
2900.000000, 82.411, -44.0444
2950.000000, 82.389, -45.2835
3000.000000, 82.333, -46.4242
3040.000000, 82.272, -47.2753
3070.000000, 82.218, -47.8692
3110.000000, 82.134, -48.5982
3150.000000, 82.037, -49.2310
3200.000000, 81.903, -49.8915
3250.000000, 81.757, -50.4186
3300.000000, 81.601, -50.8137
3350.000000, 81.443, -51.0741
3400.000000, 81.283, -51.1987
3450.000000, 81.124, -51.2159
3500.000000, 80.965, -51.1209
3550.000000, 80.809, -50.9149
3600.000000, 80.658, -50.5967
3650.000000, 80.515, -50.2003
3700.000000, 80.380, -49.7285
3750.000000, 80.251, -49.1839
3820.000000, 80.083, -48.3460
3870.000000, 79.976, -47.7018
3950.000000, 79.818, -46.6063
4000.000000, 79.726, -45.8851
4060.000000, 79.628, -44.9989
4120.000000, 79.541, -44.1178
4180.000000, 79.460, -43.2743
4250.000000, 79.369, -42.2993
4310.000000, 79.286, -41.4847
4370.000000, 79.197, -40.6936
4440.000000, 79.080, -39.7452
4500.000000, 78.960, -38.8598
4550.000000, 78.843, -37.9956
4620.000000, 78.664, -36.4296
4680.000000, 78.520, -34.6064
4750.000000, 78.421, -31.8313
4820.000000, 78.478, -28.6530
4870.000000, 78.633, -26.5756
4940.000000, 78.957, -24.5572
5000.000000, 79.256, -23.7999
5080.000000, 79.589, -23.9034
5150.000000, 79.781, -24.5790
5220.000000, 79.876, -25.4353
5300.000000, 79.887, -26.4129
5380.000000, 79.815, -27.3035
5450.000000, 79.695, -27.9009
5520.000000, 79.531, -28.2863
5600.000000, 79.300, -28.4384
5700.000000, 78.959, -28.1543
5800.000000, 78.577, -27.2618
5900.000000, 78.176, -25.5647
6000.000000, 77.804, -23.1521
6080.000000, 77.536, -20.7777
6150.000000, 77.328, -18.3365
6220.000000, 77.159, -15.5779
6300.000000, 77.033, -12.0478
6400.000000, 77.000, -7.1707
6500.000000, 77.140, -2.0081
6600.000000, 77.475, 3.0541
6700.000000, 78.009, 7.4929
6800.000000, 78.707, 10.8125
6900.000000, 79.489, 12.6888
7000.000000, 80.274, 13.0549
7100.000000, 80.991, 12.1538
7200.000000, 81.613, 10.4142
7300.000000, 82.148, 8.1042
7400.000000, 82.617, 5.3361
7500.000000, 83.044, 2.0159
7620.000000, 83.479, -3.0657
7750.000000, 83.734, -10.2665
7880.000000, 83.561, -18.7066
8000.000000, 82.912, -26.0840
8120.000000, 81.880, -31.3916
8250.000000, 80.606, -34.0300
8380.000000, 79.422, -34.3007
8500.000000, 78.425, -33.5401
8620.000000, 77.454, -31.9386
8750.000000, 76.431, -28.7187
8850.000000, 75.717, -24.9720
9000.000000, 74.900, -17.4810
9120.000000, 74.565, -10.4915
9250.000000, 74.581, -2.8033
9380.000000, 74.993, 3.9821
9500.000000, 75.656, 8.4632
9620.000000, 76.477, 10.5443
9750.000000, 77.366, 9.7645
9880.000000, 78.029, 5.9877
10000.000000, 78.247, 0.8409
10150.000000, 77.933, -5.5046
10300.000000, 77.154, -9.6677
10440.000000, 76.265, -10.9956
10600.000000, 75.294, -10.0204
10750.000000, 74.537, -7.5043
10900.000000, 73.952, -4.1523
11060.000000, 73.508, -0.2019
11200.000000, 73.250, 3.2568
11380.000000, 73.091, 7.4094
11500.000000, 73.076, 9.7600
11720.000000, 73.105, 12.5605
11800.000000, 73.081, 13.1164
12060.000000, 72.817, 15.1071
12200.000000, 72.640, 16.6189
12410.000000, 72.509, 20.4750
12500.000000, 72.672, 22.0136
12650.000000, 72.987, 21.1523
12800.000000, 72.752, 18.2768
13150.000000, 71.222, 19.4739
13200.000000, 71.025, 20.3739
13400.000000, 70.385, 24.8431
13600.000000, 69.998, 30.2747
13800.000000, 69.887, 36.0483
14000.000000, 70.055, 41.5916
14300.000000, 70.824, 47.7505
14500.000000, 71.596, 49.2779
14750.000000, 72.564, 47.0965
15000.000000, 73.101, 41.0001
15250.000000, 72.947, 33.9927
15500.000000, 72.282, 29.3679
15750.000000, 71.551, 27.9034
16000.000000, 71.066, 28.2219
16250.000000, 70.878, 28.5078
16500.000000, 70.872, 27.5166
16750.000000, 70.843, 24.7130
17000.000000, 70.586, 20.4033
17250.000000, 69.983, 15.7156
17500.000000, 69.059, 12.0766
17750.000000, 67.949, 10.2457
18000.000000, 66.828, 10.0997
18250.000000, 65.950, 10.7163
18500.000000, 65.345, 7.8200
18750.000000, 64.286, 1.4059
19000.000000, 62.685, -5.5381
19250.000000, 60.691, -13.1787
19500.000000, 58.216, -21.9738
19750.000000, 55.261, -30.6852
