* Measurement data measured by REW V5.31.3
* Source: Input device not selected, no input selected, L, volume: no control
* Format: 256k Log Swept Sine, 1 sweep at -12.0 dBFS with no timing reference
* Dated: Dec 2, 2024 8:03:12 PM
* REW Settings:
*  C-weighting compensation: Off
*  Target level: 75.0 dB
* Note: ; 
* Measurement: M-121i (H570 M) L
* Smoothing: 1/24 octave
* Frequency Step: 1/48 octave
* Start Frequency: 20.300 Hz
*
* Freq(Hz), SPL(dB), Phase(degrees)
20.299999, 81.668, 16.0560
20.600000, 81.647, 15.4038
20.900000, 81.623, 14.9439
21.200001, 81.618, 14.6505
21.400000, 81.628, 14.4465
21.799999, 81.671, 13.8039
22.000000, 81.695, 13.3321
22.400000, 81.733, 12.1719
22.700001, 81.752, 11.2485
23.000000, 81.766, 10.4001
23.299999, 81.780, 9.6899
23.600000, 81.793, 9.1323
24.000000, 81.797, 8.5926
24.299999, 81.785, 8.2974
24.700001, 81.746, 7.9777
25.000000, 81.705, 7.7461
25.400000, 81.650, 7.4001
25.799999, 81.611, 7.0121
26.200001, 81.602, 6.6355
26.500000, 81.617, 6.3892
26.900000, 81.659, 6.0840
27.200001, 81.691, 5.8135
27.600000, 81.704, 5.3078
28.000000, 81.652, 4.6120
28.500000, 81.488, 3.6287
29.000000, 81.298, 2.8100
29.500000, 81.221, 2.2725
30.000000, 81.335, 1.8232
30.400000, 81.530, 1.3727
30.700001, 81.693, 0.9761
31.100000, 81.881, 0.4373
31.500000, 81.998, -0.0149
32.000000, 82.028, -0.3840
32.500000, 81.955, -0.6227
33.000000, 81.822, -0.9999
33.500000, 81.656, -1.7883
34.000000, 81.460, -3.0018
34.500000, 81.246, -4.2720
35.000000, 81.070, -5.0932
35.500000, 81.020, -5.2878
36.000000, 81.116, -5.2006
36.500000, 81.274, -5.2845
37.000000, 81.371, -5.5954
37.500000, 81.357, -5.8706
38.200001, 81.241, -5.9952
38.700001, 81.185, -6.2036
39.500000, 81.172, -7.2360
40.000000, 81.169, -8.0098
40.599998, 81.150, -8.6438
41.200001, 81.122, -8.9918
41.799999, 81.085, -9.3386
42.500000, 81.038, -9.9006
43.099998, 81.002, -10.4295
43.700001, 80.967, -10.9039
44.400002, 80.910, -11.3600
45.000000, 80.854, -11.7188
45.500000, 80.818, -12.0504
46.200001, 80.788, -12.5782
46.799999, 80.770, -13.0115
47.500000, 80.736, -13.3893
48.200001, 80.691, -13.6473
48.700001, 80.663, -13.8404
49.400002, 80.630, -14.2277
50.000000, 80.598, -14.6493
50.799999, 80.541, -15.2219
51.500000, 80.493, -15.7337
52.200001, 80.445, -16.2473
53.000000, 80.383, -16.6621
53.799999, 80.333, -16.9132
54.500000, 80.306, -17.1793
55.200001, 80.289, -17.5046
56.000000, 80.261, -17.9408
57.000000, 80.158, -18.5425
58.000000, 80.102, -18.8384
59.000000, 80.221, -19.0909
60.000000, 80.245, -19.2735
60.799999, 80.132, -19.2431
61.500000, 80.031, -19.5618
62.200001, 79.956, -20.2852
63.000000, 79.887, -20.8034
64.000000, 79.867, -20.7520
65.000000, 79.822, -21.6238
66.000000, 79.608, -22.6437
67.000000, 79.467, -22.5911
68.000000, 79.487, -22.8384
69.000000, 79.511, -23.4392
70.000000, 79.424, -23.5411
71.000000, 79.281, -23.1967
72.000000, 79.273, -23.5148
73.000000, 79.320, -24.2579
74.000000, 79.284, -24.1246
75.000000, 79.209, -24.0370
76.199997, 79.096, -24.9465
77.500000, 79.015, -25.3064
78.800003, 78.951, -25.4529
80.000000, 78.873, -25.7679
81.199997, 78.849, -26.3739
82.500000, 78.809, -27.3311
83.800003, 78.749, -27.8563
85.000000, 78.684, -27.9000
86.199997, 78.629, -27.7985
87.500000, 78.566, -27.6655
88.500000, 78.474, -27.6504
90.000000, 78.341, -27.9695
91.199997, 78.304, -28.5268
92.500000, 78.256, -28.8341
93.800003, 78.134, -28.7225
95.000000, 78.038, -28.4772
96.199997, 78.034, -28.9504
97.500000, 78.007, -29.7337
98.800003, 77.927, -29.6425
100.000000, 77.859, -29.5859
101.500000, 77.833, -29.6097
103.000000, 77.819, -29.4335
104.400002, 77.752, -29.6581
106.000000, 77.665, -30.0924
107.500000, 77.585, -30.2346
109.000000, 77.509, -30.4998
110.599998, 77.432, -30.7393
112.000000, 77.361, -30.8925
113.800003, 77.289, -31.2515
115.000000, 77.272, -31.2587
117.199997, 77.210, -31.2407
118.000000, 77.147, -31.4816
120.599998, 77.002, -32.1549
122.000000, 76.953, -31.9737
124.099998, 76.910, -31.7136
125.000000, 76.907, -31.6030
126.500000, 76.862, -31.6733
128.000000, 76.800, -32.0087
131.500000, 76.538, -31.0712
132.000000, 76.510, -30.8988
134.000000, 76.474, -30.8264
136.000000, 76.412, -30.4456
138.000000, 76.317, -30.3762
140.000000, 76.305, -30.0954
143.000000, 76.301, -29.4898
145.000000, 76.319, -29.1161
147.500000, 76.412, -29.5659
150.000000, 76.511, -30.3182
152.500000, 76.551, -30.8033
155.000000, 76.509, -31.4330
157.500000, 76.407, -31.9535
160.000000, 76.307, -32.2153
162.500000, 76.247, -32.3542
165.000000, 76.188, -32.8542
167.500000, 76.119, -33.1949
170.000000, 76.050, -33.2011
172.500000, 75.985, -33.3318
175.000000, 75.926, -33.5307
177.500000, 75.868, -33.5440
180.000000, 75.804, -33.5021
182.500000, 75.755, -33.6731
185.000000, 75.701, -33.8150
187.500000, 75.645, -33.9417
190.000000, 75.596, -34.0708
192.500000, 75.555, -34.1191
195.000000, 75.513, -34.1476
197.500000, 75.463, -34.1818
200.000000, 75.414, -34.2338
203.000000, 75.369, -34.2959
206.000000, 75.335, -34.3660
209.000000, 75.288, -34.5140
212.000000, 75.239, -34.6412
214.000000, 75.207, -34.6112
218.000000, 75.139, -34.5511
220.000000, 75.111, -34.5621
224.000000, 75.051, -34.5936
227.000000, 75.003, -34.6951
230.000000, 74.965, -34.7154
233.000000, 74.942, -34.7039
236.000000, 74.908, -34.6871
240.000000, 74.847, -34.7074
243.000000, 74.811, -34.7746
247.000000, 74.767, -34.9331
250.000000, 74.730, -34.9875
254.000000, 74.683, -34.9390
258.000000, 74.643, -34.8854
262.000000, 74.601, -34.8212
265.000000, 74.569, -34.7828
269.000000, 74.526, -34.7988
272.000000, 74.492, -34.7932
276.000000, 74.449, -34.6668
280.000000, 74.405, -34.3962
285.000000, 74.374, -33.9707
290.000000, 74.359, -33.5221
295.000000, 74.373, -33.1799
300.000000, 74.416, -32.9430
304.000000, 74.455, -32.9051
307.000000, 74.481, -32.9760
311.000000, 74.519, -33.0990
315.000000, 74.551, -33.2222
320.000000, 74.579, -33.3766
325.000000, 74.602, -33.5549
330.000000, 74.625, -33.8391
335.000000, 74.643, -34.1458
340.000000, 74.655, -34.4862
345.000000, 74.664, -34.8188
350.000000, 74.667, -35.0441
355.000000, 74.659, -35.1796
360.000000, 74.647, -35.4086
365.000000, 74.636, -35.6911
370.000000, 74.629, -35.9002
375.000000, 74.624, -36.0481
382.000000, 74.630, -36.2347
387.000000, 74.627, -36.3871
395.000000, 74.623, -36.6353
400.000000, 74.624, -36.7991
406.000000, 74.621, -36.9733
412.000000, 74.621, -37.1327
418.000000, 74.622, -37.2627
425.000000, 74.627, -37.4494
431.000000, 74.637, -37.6736
437.000000, 74.653, -37.8437
444.000000, 74.663, -38.0586
450.000000, 74.667, -38.2363
455.000000, 74.674, -38.4076
462.000000, 74.691, -38.6616
468.000000, 74.702, -38.8904
475.000000, 74.715, -39.1444
482.000000, 74.732, -39.2915
487.000000, 74.744, -39.3954
494.000000, 74.757, -39.6573
500.000000, 74.767, -39.9037
508.000000, 74.775, -40.1816
515.000000, 74.783, -40.3830
522.000000, 74.800, -40.5642
530.000000, 74.826, -40.8315
538.000000, 74.843, -41.0984
545.000000, 74.851, -41.3455
552.000000, 74.862, -41.5999
560.000000, 74.878, -41.8800
570.000000, 74.890, -42.1699
580.000000, 74.906, -42.5113
590.000000, 74.920, -42.8448
600.000000, 74.928, -43.0971
608.000000, 74.932, -43.2949
615.000000, 74.942, -43.5192
622.000000, 74.956, -43.7409
630.000000, 74.963, -43.9958
640.000000, 74.967, -44.2836
650.000000, 74.969, -44.5022
660.000000, 74.966, -44.7377
670.000000, 74.960, -44.9297
680.000000, 74.957, -45.1049
690.000000, 74.958, -45.2858
700.000000, 74.948, -45.4185
710.000000, 74.940, -45.4976
720.000000, 74.936, -45.6082
730.000000, 74.938, -45.7197
740.000000, 74.937, -45.7761
750.000000, 74.930, -45.8461
762.000000, 74.923, -45.8925
775.000000, 74.921, -45.8228
788.000000, 74.921, -45.7148
800.000000, 74.915, -45.6331
812.000000, 74.916, -45.5431
825.000000, 74.920, -45.4329
838.000000, 74.933, -45.2832
850.000000, 74.940, -45.0756
862.000000, 74.955, -44.8252
875.000000, 74.979, -44.5424
885.000000, 74.998, -44.3009
900.000000, 75.033, -43.9557
912.000000, 75.067, -43.6648
925.000000, 75.111, -43.3368
938.000000, 75.157, -43.0113
950.000000, 75.201, -42.7404
962.000000, 75.259, -42.4704
975.000000, 75.327, -42.2010
988.000000, 75.394, -41.9595
1000.000000, 75.457, -41.7437
1015.000000, 75.531, -41.4555
1030.000000, 75.607, -41.2510
1044.000000, 75.684, -41.0646
1060.000000, 75.778, -40.8161
1075.000000, 75.867, -40.5718
1090.000000, 75.962, -40.3991
1106.000000, 76.065, -40.2891
1120.000000, 76.149, -40.2384
1138.000000, 76.256, -40.2008
1150.000000, 76.326, -40.1767
1172.000000, 76.450, -40.1337
1180.000000, 76.495, -40.1127
1206.000000, 76.630, -40.1099
1220.000000, 76.697, -40.1382
1241.000000, 76.793, -40.2133
1250.000000, 76.834, -40.2518
1265.000000, 76.900, -40.2898
1280.000000, 76.961, -40.3127
1315.000000, 77.091, -40.4637
1320.000000, 77.108, -40.4730
1340.000000, 77.170, -40.4949
1360.000000, 77.230, -40.5322
1380.000000, 77.288, -40.5629
1400.000000, 77.343, -40.5720
1430.000000, 77.422, -40.4973
1450.000000, 77.471, -40.4561
1475.000000, 77.529, -40.3873
1500.000000, 77.582, -40.2722
1525.000000, 77.629, -40.1633
1550.000000, 77.673, -39.9871
1575.000000, 77.713, -39.8128
1600.000000, 77.748, -39.5884
1625.000000, 77.785, -39.3070
1650.000000, 77.819, -39.0052
1675.000000, 77.855, -38.6623
1700.000000, 77.890, -38.2307
1725.000000, 77.926, -37.7339
1750.000000, 77.974, -37.2000
1775.000000, 78.028, -36.5987
1800.000000, 78.086, -35.9895
1825.000000, 78.157, -35.3802
1850.000000, 78.240, -34.6994
1875.000000, 78.333, -34.0723
1900.000000, 78.434, -33.5097
1925.000000, 78.546, -32.9355
1950.000000, 78.666, -32.3815
1975.000000, 78.789, -31.8820
2000.000000, 78.914, -31.4273
2030.000000, 79.064, -30.9273
2060.000000, 79.217, -30.5050
2090.000000, 79.374, -30.1651
2120.000000, 79.533, -29.8784
2140.000000, 79.640, -29.7249
2180.000000, 79.852, -29.4960
2200.000000, 79.960, -29.4125
2240.000000, 80.174, -29.3163
2270.000000, 80.328, -29.2925
2300.000000, 80.482, -29.3129
2330.000000, 80.631, -29.3888
2360.000000, 80.780, -29.5296
2400.000000, 80.973, -29.8085
2430.000000, 81.112, -30.0746
2470.000000, 81.288, -30.4958
2500.000000, 81.415, -30.8940
2540.000000, 81.573, -31.5106
2580.000000, 81.715, -32.2143
2620.000000, 81.841, -32.9797
2650.000000, 81.928, -33.5704
2690.000000, 82.024, -34.4010
2720.000000, 82.082, -35.0526
2760.000000, 82.146, -35.9426
2800.000000, 82.188, -36.8642
2850.000000, 82.208, -37.9857
2900.000000, 82.195, -39.0860
2950.000000, 82.160, -40.0887
3000.000000, 82.101, -40.9804
3040.000000, 82.036, -41.5925
3070.000000, 81.980, -41.9905
3110.000000, 81.896, -42.4615
3150.000000, 81.805, -42.8441
3200.000000, 81.686, -43.1828
3250.000000, 81.568, -43.3776
3300.000000, 81.453, -43.4796
3350.000000, 81.344, -43.5505
3400.000000, 81.236, -43.6000
3450.000000, 81.116, -43.6047
3500.000000, 80.991, -43.5158
3550.000000, 80.867, -43.3618
3600.000000, 80.744, -43.1311
3650.000000, 80.618, -42.7906
3700.000000, 80.493, -42.3473
3750.000000, 80.375, -41.8257
3820.000000, 80.221, -41.0606
3870.000000, 80.112, -40.4747
3950.000000, 79.939, -39.4001
4000.000000, 79.833, -38.6673
4060.000000, 79.714, -37.6734
4120.000000, 79.605, -36.5968
4180.000000, 79.507, -35.4937
4250.000000, 79.408, -34.1996
4310.000000, 79.330, -33.0882
4370.000000, 79.249, -31.9931
4440.000000, 79.146, -30.7008
4500.000000, 79.045, -29.5285
4550.000000, 78.949, -28.4226
4620.000000, 78.802, -26.5455
4680.000000, 78.687, -24.4625
4750.000000, 78.625, -21.3205
4820.000000, 78.722, -17.7954
4870.000000, 78.912, -15.4731
4940.000000, 79.295, -13.1105
5000.000000, 79.653, -12.1026
5080.000000, 80.065, -11.9218
5150.000000, 80.327, -12.4069
5220.000000, 80.499, -13.1339
5300.000000, 80.599, -14.0182
5380.000000, 80.623, -14.8212
5450.000000, 80.596, -15.4150
5520.000000, 80.527, -15.8354
5600.000000, 80.407, -16.0534
5700.000000, 80.211, -15.9526
5800.000000, 79.975, -15.3332
5900.000000, 79.724, -14.0165
6000.000000, 79.502, -12.0692
6080.000000, 79.355, -10.1314
6150.000000, 79.255, -8.1005
6220.000000, 79.196, -5.7772
6300.000000, 79.199, -2.8400
6400.000000, 79.337, 1.1328
6500.000000, 79.655, 5.2847
6600.000000, 80.194, 9.1896
6700.000000, 80.963, 12.2361
6800.000000, 81.927, 13.8187
6900.000000, 83.004, 13.4459
7000.000000, 84.093, 10.8266
7100.000000, 85.091, 6.0108
7200.000000, 85.911, -0.8232
7300.000000, 86.466, -9.4498
7400.000000, 86.661, -19.4225
7500.000000, 86.412, -29.9496
7620.000000, 85.489, -41.7750
7750.000000, 83.854, -51.5249
7880.000000, 81.851, -56.8061
8000.000000, 79.963, -57.6697
8120.000000, 78.255, -55.3063
8250.000000, 76.779, -50.3224
8380.000000, 75.729, -44.6635
8500.000000, 75.001, -39.9852
8620.000000, 74.338, -35.7226
8750.000000, 73.624, -30.6104
8850.000000, 73.123, -25.9095
9000.000000, 72.561, -17.6084
9120.000000, 72.380, -10.2552
9250.000000, 72.509, -2.3619
9380.000000, 72.978, 4.5513
9500.000000, 73.659, 9.1872
9620.000000, 74.451, 11.5117
9750.000000, 75.273, 11.2363
9880.000000, 75.858, 8.2943
10000.000000, 76.026, 4.3255
10150.000000, 75.725, -0.1672
10300.000000, 75.057, -2.5322
10440.000000, 74.339, -2.4974
10600.000000, 73.599, -0.3525
10750.000000, 73.057, 2.9245
10900.000000, 72.669, 6.8388
11060.000000, 72.425, 11.2819
11200.000000, 72.353, 15.1812
11380.000000, 72.423, 19.9038
11500.000000, 72.555, 22.5898
11720.000000, 72.882, 25.9440
11800.000000, 72.980, 26.6443
12060.000000, 73.110, 28.9189
12200.000000, 73.151, 30.6458
12410.000000, 73.472, 34.7973
12500.000000, 73.860, 36.0995
12650.000000, 74.476, 34.3481
12800.000000, 74.492, 30.6808
13150.000000, 73.706, 29.5843
13200.000000, 73.627, 30.0651
13400.000000, 73.471, 32.5571
13600.000000, 73.602, 35.1964
13800.000000, 74.028, 36.9037
14000.000000, 74.666, 36.2736
14300.000000, 75.521, 29.1904
14500.000000, 75.545, 21.0310
14750.000000, 74.629, 11.1197
15000.000000, 72.982, 5.8543
15250.000000, 71.257, 6.3347
15500.000000, 69.932, 10.7622
15750.000000, 69.167, 16.5990
16000.000000, 68.913, 21.8378
16250.000000, 69.005, 25.3367
16500.000000, 69.216, 26.4790
16750.000000, 69.367, 25.4074
17000.000000, 69.311, 22.8405
17250.000000, 68.952, 19.8518
17500.000000, 68.335, 17.3819
17750.000000, 67.572, 15.7335
18000.000000, 66.781, 15.1182
18250.000000, 66.208, 14.2571
18500.000000, 65.592, 9.5478
18750.000000, 64.352, 3.0780
19000.000000, 62.635, -2.8561
19250.000000, 60.641, -9.0507
19500.000000, 58.321, -16.3917
19750.000000, 55.724, -24.1596
