* Measurement data measured by REW V5.31.3
* Source: Input device not selected, no input selected, L, volume: no control
* Format: 256k Log Swept Sine, 1 sweep at -12.0 dBFS with no timing reference
* Dated: Dec 7, 2024 12:10:34 AM
* REW Settings:
*  C-weighting compensation: Off
*  Target level: 75.0 dB
* Note: ; 
* Measurement: M-121i (Spring M) L
* Smoothing: 1/24 octave
* Frequency Step: 1/48 octave
* Start Frequency: 20.300 Hz
*
* Freq(Hz), SPL(dB), Phase(degrees)
20.299999, 81.430, 16.3517
20.600000, 81.397, 15.4433
20.900000, 81.366, 14.8280
21.200001, 81.365, 14.5931
21.400000, 81.385, 14.5409
21.799999, 81.449, 14.3418
22.000000, 81.476, 14.0910
22.400000, 81.482, 13.2521
22.700001, 81.442, 12.4421
23.000000, 81.381, 11.6254
23.299999, 81.328, 10.9046
23.600000, 81.306, 10.3160
24.000000, 81.337, 9.6937
24.299999, 81.389, 9.2946
24.700001, 81.457, 8.8131
25.000000, 81.484, 8.4940
25.400000, 81.478, 8.1257
25.799999, 81.443, 7.7668
26.200001, 81.407, 7.3125
26.500000, 81.394, 6.8684
26.900000, 81.398, 6.1743
27.200001, 81.415, 5.6539
27.600000, 81.445, 5.0820
28.000000, 81.473, 4.7107
28.500000, 81.489, 4.4204
29.000000, 81.467, 4.0441
29.500000, 81.406, 3.4004
30.000000, 81.334, 2.5635
30.400000, 81.298, 1.8885
30.700001, 81.294, 1.4231
31.100000, 81.314, 0.8601
31.500000, 81.340, 0.3467
32.000000, 81.346, -0.2091
32.500000, 81.316, -0.6119
33.000000, 81.294, -0.8987
33.500000, 81.317, -1.2635
34.000000, 81.368, -1.8542
34.500000, 81.388, -2.5602
35.000000, 81.343, -3.1312
35.500000, 81.252, -3.4799
36.000000, 81.158, -3.7907
36.500000, 81.089, -4.2843
37.000000, 81.050, -4.9379
37.500000, 81.043, -5.5392
38.200001, 81.075, -6.0991
38.700001, 81.093, -6.4182
39.500000, 81.055, -7.0554
40.000000, 81.006, -7.5182
40.599998, 80.960, -8.0429
41.200001, 80.943, -8.4514
41.799999, 80.942, -8.8220
42.500000, 80.918, -9.5346
43.099998, 80.845, -10.3643
43.700001, 80.755, -10.9294
44.400002, 80.733, -11.0569
45.000000, 80.764, -11.2263
45.500000, 80.737, -11.5947
46.200001, 80.593, -12.0346
46.799999, 80.504, -12.1789
47.500000, 80.540, -12.6128
48.200001, 80.597, -13.4797
48.700001, 80.577, -14.0062
49.400002, 80.509, -14.4633
50.000000, 80.481, -14.9873
50.799999, 80.475, -15.9631
51.500000, 80.445, -16.2495
52.200001, 80.369, -15.8500
53.000000, 80.170, -15.6933
53.799999, 79.904, -15.8788
54.500000, 79.998, -15.4997
55.200001, 80.543, -15.5424
56.000000, 81.095, -16.8308
57.000000, 80.947, -17.3448
58.000000, 80.339, -17.1212
59.000000, 79.831, -19.6005
60.000000, 79.762, -21.0802
60.799999, 79.870, -20.9462
61.500000, 79.765, -22.0417
62.200001, 79.408, -25.6767
63.000000, 78.921, -31.0467
64.000000, 78.882, -30.7114
65.000000, 79.446, -23.4045
66.000000, 79.627, -19.1968
67.000000, 79.522, -21.0852
68.000000, 79.622, -24.3900
69.000000, 79.801, -23.3857
70.000000, 79.767, -21.1484
71.000000, 79.432, -20.8661
72.000000, 79.081, -21.1565
73.000000, 78.950, -21.9273
74.000000, 78.917, -24.1416
75.000000, 78.815, -25.6490
76.199997, 78.752, -24.1318
77.500000, 78.970, -23.1037
78.800003, 78.938, -24.9257
80.000000, 78.685, -25.9256
81.199997, 78.646, -26.3810
82.500000, 78.581, -26.5742
83.800003, 78.395, -26.3334
85.000000, 78.306, -26.5291
86.199997, 78.271, -26.2109
87.500000, 78.132, -25.7836
88.500000, 77.915, -26.5050
90.000000, 77.774, -27.9649
91.199997, 77.979, -28.0384
92.500000, 78.048, -28.4383
93.800003, 77.876, -28.1894
95.000000, 77.737, -27.3997
96.199997, 77.629, -27.1186
97.500000, 77.555, -27.7941
98.800003, 77.518, -28.9144
100.000000, 77.470, -28.7582
101.500000, 77.293, -27.8085
103.000000, 77.280, -28.2988
104.400002, 77.306, -27.8119
106.000000, 77.120, -25.2541
107.500000, 77.173, -23.2205
109.000000, 77.265, -22.5695
110.599998, 77.391, -21.9892
112.000000, 77.395, -20.5383
113.800003, 77.464, -23.3046
115.000000, 77.512, -25.6680
117.199997, 77.681, -27.2052
118.000000, 77.788, -27.9485
120.599998, 77.764, -28.8527
122.000000, 77.593, -28.7985
124.099998, 77.535, -29.8408
125.000000, 77.518, -30.1955
126.500000, 77.397, -30.5546
128.000000, 77.221, -30.6679
131.500000, 77.084, -30.4920
132.000000, 77.084, -30.5130
134.000000, 77.116, -31.0523
136.000000, 77.099, -31.2525
138.000000, 76.978, -31.2295
140.000000, 76.831, -31.3634
143.000000, 76.760, -31.6836
145.000000, 76.689, -31.8731
147.500000, 76.596, -32.2140
150.000000, 76.515, -32.4084
152.500000, 76.452, -32.5726
155.000000, 76.389, -32.6015
157.500000, 76.317, -32.6992
160.000000, 76.242, -32.8669
162.500000, 76.175, -32.9917
165.000000, 76.108, -32.9106
167.500000, 76.036, -32.9813
170.000000, 75.980, -33.2342
172.500000, 75.942, -33.3124
175.000000, 75.895, -33.3516
177.500000, 75.836, -33.4447
180.000000, 75.783, -33.5285
182.500000, 75.723, -33.6223
185.000000, 75.672, -33.6383
187.500000, 75.615, -33.6782
190.000000, 75.559, -33.7580
192.500000, 75.512, -33.7735
195.000000, 75.466, -33.7808
197.500000, 75.415, -33.8699
200.000000, 75.359, -33.9385
203.000000, 75.300, -33.9842
206.000000, 75.253, -33.9893
209.000000, 75.198, -33.9765
212.000000, 75.129, -34.0284
214.000000, 75.083, -34.0469
218.000000, 74.993, -34.0673
220.000000, 74.952, -34.0570
224.000000, 74.884, -34.0077
227.000000, 74.823, -33.9873
230.000000, 74.753, -33.8987
233.000000, 74.671, -33.6731
236.000000, 74.589, -33.2586
240.000000, 74.500, -32.5734
243.000000, 74.459, -31.8041
247.000000, 74.447, -30.5731
250.000000, 74.514, -29.4796
254.000000, 74.705, -28.2956
258.000000, 74.937, -28.3100
262.000000, 75.118, -29.2515
265.000000, 75.194, -30.0993
269.000000, 75.227, -31.0714
272.000000, 75.218, -31.6747
276.000000, 75.186, -32.3155
280.000000, 75.145, -32.7796
285.000000, 75.095, -33.2831
290.000000, 75.052, -33.6521
295.000000, 75.006, -33.8968
300.000000, 74.970, -34.2150
304.000000, 74.939, -34.4321
307.000000, 74.917, -34.5560
311.000000, 74.900, -34.6800
315.000000, 74.888, -34.7696
320.000000, 74.870, -34.9517
325.000000, 74.844, -35.1111
330.000000, 74.825, -35.2876
335.000000, 74.812, -35.4516
340.000000, 74.804, -35.5944
345.000000, 74.796, -35.7766
350.000000, 74.782, -35.8818
355.000000, 74.772, -35.9157
360.000000, 74.768, -36.0075
365.000000, 74.766, -36.1847
370.000000, 74.756, -36.3123
375.000000, 74.751, -36.4295
382.000000, 74.751, -36.6127
387.000000, 74.753, -36.7205
395.000000, 74.748, -36.9733
400.000000, 74.748, -37.0892
406.000000, 74.755, -37.2388
412.000000, 74.762, -37.4360
418.000000, 74.773, -37.5641
425.000000, 74.779, -37.7272
431.000000, 74.785, -37.9360
437.000000, 74.803, -38.1129
444.000000, 74.823, -38.3208
450.000000, 74.832, -38.5195
455.000000, 74.842, -38.6918
462.000000, 74.864, -38.9271
468.000000, 74.876, -39.1091
475.000000, 74.885, -39.3060
482.000000, 74.897, -39.5624
487.000000, 74.907, -39.7236
494.000000, 74.917, -39.9492
500.000000, 74.927, -40.1909
508.000000, 74.951, -40.4731
515.000000, 74.970, -40.6473
522.000000, 74.986, -40.8917
530.000000, 75.008, -41.2352
538.000000, 75.029, -41.5404
545.000000, 75.044, -41.7834
552.000000, 75.054, -42.0003
560.000000, 75.066, -42.2583
570.000000, 75.080, -42.6164
580.000000, 75.096, -42.9553
590.000000, 75.118, -43.3096
600.000000, 75.132, -43.6439
608.000000, 75.138, -43.8972
615.000000, 75.144, -44.1107
622.000000, 75.151, -44.3288
630.000000, 75.160, -44.6033
640.000000, 75.171, -44.8867
650.000000, 75.171, -45.1107
660.000000, 75.175, -45.3778
670.000000, 75.178, -45.6229
680.000000, 75.176, -45.8778
690.000000, 75.175, -46.0427
700.000000, 75.167, -46.2125
710.000000, 75.160, -46.4258
720.000000, 75.155, -46.5757
730.000000, 75.148, -46.6501
740.000000, 75.146, -46.6923
750.000000, 75.143, -46.7472
762.000000, 75.137, -46.8139
775.000000, 75.139, -46.8689
788.000000, 75.141, -46.8816
800.000000, 75.143, -46.7789
812.000000, 75.143, -46.6783
825.000000, 75.146, -46.5614
838.000000, 75.156, -46.4154
850.000000, 75.170, -46.2347
862.000000, 75.187, -46.0254
875.000000, 75.215, -45.8184
885.000000, 75.241, -45.6277
900.000000, 75.267, -45.3358
912.000000, 75.295, -45.1096
925.000000, 75.338, -44.8100
938.000000, 75.391, -44.4771
950.000000, 75.445, -44.2119
962.000000, 75.497, -43.9704
975.000000, 75.557, -43.6943
988.000000, 75.629, -43.4405
1000.000000, 75.701, -43.2526
1015.000000, 75.786, -43.0837
1030.000000, 75.860, -42.8827
1044.000000, 75.927, -42.6562
1060.000000, 76.022, -42.3854
1075.000000, 76.123, -42.1834
1090.000000, 76.221, -42.0734
1106.000000, 76.326, -41.9860
1120.000000, 76.417, -41.9273
1138.000000, 76.531, -41.9406
1150.000000, 76.605, -41.9768
1172.000000, 76.739, -42.0359
1180.000000, 76.782, -42.0487
1206.000000, 76.924, -42.1564
1220.000000, 76.999, -42.2714
1241.000000, 77.103, -42.4496
1250.000000, 77.146, -42.5319
1265.000000, 77.213, -42.6459
1280.000000, 77.278, -42.7611
1315.000000, 77.412, -43.0635
1320.000000, 77.430, -43.1068
1340.000000, 77.498, -43.2667
1360.000000, 77.559, -43.3958
1380.000000, 77.615, -43.5345
1400.000000, 77.673, -43.6516
1430.000000, 77.751, -43.7667
1450.000000, 77.796, -43.8272
1475.000000, 77.850, -43.8905
1500.000000, 77.897, -43.9012
1525.000000, 77.936, -43.9089
1550.000000, 77.979, -43.8637
1575.000000, 78.014, -43.7658
1600.000000, 78.045, -43.6407
1625.000000, 78.074, -43.5040
1650.000000, 78.098, -43.3137
1675.000000, 78.125, -43.0456
1700.000000, 78.154, -42.6951
1725.000000, 78.184, -42.2583
1750.000000, 78.222, -41.7610
1775.000000, 78.263, -41.2384
1800.000000, 78.315, -40.7019
1825.000000, 78.379, -40.1282
1850.000000, 78.456, -39.5472
1875.000000, 78.549, -38.9915
1900.000000, 78.649, -38.4418
1925.000000, 78.753, -37.9459
1950.000000, 78.862, -37.5222
1975.000000, 78.978, -37.1070
2000.000000, 79.099, -36.7105
2030.000000, 79.245, -36.3373
2060.000000, 79.393, -36.0149
2090.000000, 79.544, -35.7608
2120.000000, 79.692, -35.5599
2140.000000, 79.789, -35.4536
2180.000000, 79.983, -35.3088
2200.000000, 80.083, -35.2548
2240.000000, 80.278, -35.2448
2270.000000, 80.423, -35.3067
2300.000000, 80.569, -35.4098
2330.000000, 80.710, -35.5671
2360.000000, 80.847, -35.7811
2400.000000, 81.025, -36.1427
2430.000000, 81.152, -36.4698
2470.000000, 81.314, -37.0100
2500.000000, 81.426, -37.4716
2540.000000, 81.568, -38.1383
2580.000000, 81.697, -38.8833
2620.000000, 81.807, -39.7021
2650.000000, 81.879, -40.3542
2690.000000, 81.957, -41.2784
2720.000000, 82.000, -41.9850
2760.000000, 82.039, -42.9505
2800.000000, 82.058, -43.9182
2850.000000, 82.055, -45.0594
2900.000000, 82.025, -46.1060
2950.000000, 81.969, -47.0560
3000.000000, 81.895, -47.8281
3040.000000, 81.831, -48.3562
3070.000000, 81.784, -48.7079
3110.000000, 81.724, -49.1358
3150.000000, 81.666, -49.5852
3200.000000, 81.586, -50.2297
3250.000000, 81.477, -50.8709
3300.000000, 81.341, -51.4245
3350.000000, 81.189, -51.8031
3400.000000, 81.034, -52.0196
3450.000000, 80.883, -52.1356
3500.000000, 80.735, -52.1819
3550.000000, 80.579, -52.1657
3600.000000, 80.416, -52.0657
3650.000000, 80.250, -51.8630
3700.000000, 80.088, -51.5429
3750.000000, 79.932, -51.1178
3820.000000, 79.725, -50.3702
3870.000000, 79.583, -49.7511
3950.000000, 79.375, -48.6110
4000.000000, 79.258, -47.8393
4060.000000, 79.125, -46.8903
4120.000000, 79.009, -45.9152
4180.000000, 78.911, -44.9460
4250.000000, 78.799, -43.8534
4310.000000, 78.702, -42.9538
4370.000000, 78.600, -42.0996
4440.000000, 78.470, -41.1137
4500.000000, 78.338, -40.2219
4550.000000, 78.212, -39.3514
4620.000000, 78.011, -37.8049
4680.000000, 77.837, -35.9803
4750.000000, 77.696, -33.1266
4820.000000, 77.714, -29.7457
4870.000000, 77.853, -27.4606
4940.000000, 78.171, -25.1378
5000.000000, 78.471, -24.1873
5080.000000, 78.811, -24.0772
5150.000000, 79.010, -24.5861
5220.000000, 79.116, -25.3063
5300.000000, 79.141, -26.1842
5380.000000, 79.083, -26.9877
5450.000000, 78.981, -27.5588
5520.000000, 78.836, -27.9733
5600.000000, 78.624, -28.2281
5700.000000, 78.305, -28.1392
5800.000000, 77.927, -27.4787
5900.000000, 77.525, -26.1298
6000.000000, 77.131, -24.1637
6080.000000, 76.829, -22.1590
6150.000000, 76.577, -20.0328
6220.000000, 76.351, -17.5403
6300.000000, 76.149, -14.2846
6400.000000, 76.000, -9.6577
6500.000000, 76.000, -4.6229
6600.000000, 76.181, 0.4683
6700.000000, 76.557, 5.2042
6800.000000, 77.095, 9.0955
6900.000000, 77.729, 11.7305
7000.000000, 78.384, 12.9997
7100.000000, 78.983, 13.1831
7200.000000, 79.490, 12.6216
7300.000000, 79.904, 11.7297
7400.000000, 80.260, 10.8180
7500.000000, 80.604, 9.9532
7620.000000, 81.061, 8.7420
7750.000000, 81.651, 6.5567
7880.000000, 82.280, 2.5217
8000.000000, 82.729, -3.4325
8120.000000, 82.836, -11.1332
8250.000000, 82.424, -19.9092
8380.000000, 81.520, -27.3373
8500.000000, 80.394, -32.1992
8620.000000, 79.097, -34.8681
8750.000000, 77.615, -35.0107
8850.000000, 76.513, -33.0965
9000.000000, 75.085, -27.3141
9120.000000, 74.245, -20.8538
9250.000000, 73.721, -12.8830
9380.000000, 73.618, -4.7725
9500.000000, 73.874, 1.9809
9620.000000, 74.428, 7.3831
9750.000000, 75.293, 11.0219
9880.000000, 76.269, 11.3857
10000.000000, 77.040, 8.6752
10150.000000, 77.557, 2.4266
10300.000000, 77.444, -4.6750
10440.000000, 76.857, -10.0775
10600.000000, 75.877, -13.5875
10750.000000, 74.901, -14.3134
10900.000000, 74.011, -13.2091
11060.000000, 73.219, -10.7996
11200.000000, 72.661, -8.2096
11380.000000, 72.121, -4.5534
11500.000000, 71.866, -2.1482
11720.000000, 71.517, 1.1941
11800.000000, 71.375, 2.1013
12060.000000, 70.821, 5.7273
12200.000000, 70.567, 8.1526
12410.000000, 70.430, 13.0777
12500.000000, 70.609, 14.9008
12650.000000, 70.947, 14.1544
12800.000000, 70.721, 11.0058
13150.000000, 69.053, 10.6852
13200.000000, 68.804, 11.3641
13400.000000, 67.878, 15.1010
13600.000000, 67.096, 20.2764
13800.000000, 66.490, 26.7040
14000.000000, 66.084, 33.9896
14300.000000, 65.893, 45.6663
14500.000000, 66.093, 53.5336
14750.000000, 66.789, 62.7543
15000.000000, 68.009, 70.5150
15250.000000, 69.716, 75.2227
15500.000000, 71.726, 75.0265
15750.000000, 73.647, 68.5448
16000.000000, 74.938, 56.5220
16250.000000, 75.296, 42.2434
16500.000000, 74.872, 29.0298
16750.000000, 73.973, 17.8500
17000.000000, 72.748, 8.3470
17250.000000, 71.186, 0.6161
17500.000000, 69.287, -4.5218
17750.000000, 67.150, -6.3096
18000.000000, 64.996, -4.2037
18250.000000, 63.248, 0.7881
18500.000000, 61.940, 3.5693
18750.000000, 60.474, 4.5281
19000.000000, 58.881, 5.0493
19250.000000, 57.257, 4.0942
19500.000000, 55.489, 0.6206
19750.000000, 53.550, -5.2166
