* Measurement data measured by REW V5.31.3
* Source: Input device not selected, no input selected, L, volume: no control
* Format: 256k Log Swept Sine, 1 sweep at -12.0 dBFS with no timing reference
* Dated: Dec 2, 2024 11:48:24 PM
* REW Settings:
*  C-weighting compensation: Off
*  Target level: 75.0 dB
* Note: ; 
* Measurement: M-121i (Beige Foam) L
* Smoothing: 1/24 octave
* Frequency Step: 1/48 octave
* Start Frequency: 20.300 Hz
*
* Freq(Hz), SPL(dB), Phase(degrees)
20.299999, 80.588, 24.2532
20.600000, 80.580, 23.9668
20.900000, 80.578, 23.6934
21.200001, 80.590, 23.3976
21.400000, 80.605, 23.1476
21.799999, 80.643, 22.4518
22.000000, 80.661, 21.9996
22.400000, 80.686, 20.9339
22.700001, 80.692, 20.0645
23.000000, 80.688, 19.2115
23.299999, 80.680, 18.4348
23.600000, 80.675, 17.7718
24.000000, 80.682, 17.0705
24.299999, 80.700, 16.6453
24.700001, 80.737, 16.1238
25.000000, 80.767, 15.7132
25.400000, 80.798, 15.1077
25.799999, 80.812, 14.4627
26.200001, 80.812, 13.8380
26.500000, 80.810, 13.4078
26.900000, 80.813, 12.8795
27.200001, 80.821, 12.4947
27.600000, 80.833, 11.9654
28.000000, 80.837, 11.4078
28.500000, 80.825, 10.6985
29.000000, 80.803, 10.0038
29.500000, 80.788, 9.3072
30.000000, 80.788, 8.5869
30.400000, 80.793, 8.0144
30.700001, 80.799, 7.6085
31.100000, 80.805, 7.1129
31.500000, 80.811, 6.6577
32.000000, 80.814, 6.0955
32.500000, 80.807, 5.5097
33.000000, 80.788, 4.9452
33.500000, 80.765, 4.4760
34.000000, 80.750, 4.1003
34.500000, 80.745, 3.7119
35.000000, 80.740, 3.2027
35.500000, 80.721, 2.5760
36.000000, 80.691, 1.9435
36.500000, 80.665, 1.4135
37.000000, 80.659, 0.9921
37.500000, 80.666, 0.6014
38.200001, 80.669, -0.0155
38.700001, 80.653, -0.5134
39.500000, 80.615, -1.3377
40.000000, 80.594, -1.8205
40.599998, 80.575, -2.3304
41.200001, 80.557, -2.8077
41.799999, 80.532, -3.3416
42.500000, 80.489, -4.0209
43.099998, 80.456, -4.5300
43.700001, 80.444, -4.9328
44.400002, 80.442, -5.3583
45.000000, 80.427, -5.7192
45.500000, 80.407, -6.0194
46.200001, 80.383, -6.5133
46.799999, 80.361, -7.0593
47.500000, 80.312, -7.7348
48.200001, 80.246, -8.2546
48.700001, 80.209, -8.5004
49.400002, 80.196, -8.7787
50.000000, 80.204, -9.0820
50.799999, 80.183, -9.6264
51.500000, 80.115, -10.1100
52.200001, 80.046, -10.5311
53.000000, 80.013, -11.0124
53.799999, 80.004, -11.5072
54.500000, 79.974, -11.9263
55.200001, 79.919, -12.3383
56.000000, 79.868, -12.7596
57.000000, 79.863, -13.3487
58.000000, 79.780, -14.0511
59.000000, 79.609, -14.2851
60.000000, 79.556, -14.3563
60.799999, 79.583, -14.6300
61.500000, 79.595, -14.9772
62.200001, 79.576, -15.3350
63.000000, 79.539, -15.5740
64.000000, 79.513, -15.6909
65.000000, 79.458, -16.0155
66.000000, 79.393, -16.5306
67.000000, 79.376, -17.2119
68.000000, 79.324, -17.7469
69.000000, 79.230, -18.1058
70.000000, 79.153, -18.6336
71.000000, 79.108, -19.0441
72.000000, 79.077, -19.2318
73.000000, 79.048, -19.5346
74.000000, 79.013, -19.9216
75.000000, 78.960, -20.1440
76.199997, 78.885, -20.3922
77.500000, 78.826, -20.8295
78.800003, 78.772, -21.1766
80.000000, 78.712, -21.4979
81.199997, 78.662, -21.8496
82.500000, 78.617, -22.2134
83.800003, 78.568, -22.5964
85.000000, 78.516, -22.9166
86.199997, 78.459, -23.2254
87.500000, 78.389, -23.4676
88.500000, 78.337, -23.5899
90.000000, 78.271, -23.8059
91.199997, 78.224, -24.0097
92.500000, 78.159, -24.2889
93.800003, 78.093, -24.5801
95.000000, 78.051, -24.8012
96.199997, 78.014, -25.0056
97.500000, 77.967, -25.2214
98.800003, 77.909, -25.4364
100.000000, 77.859, -25.6413
101.500000, 77.802, -25.8965
103.000000, 77.745, -26.0859
104.400002, 77.696, -26.2870
106.000000, 77.629, -26.5590
107.500000, 77.568, -26.7896
109.000000, 77.519, -26.9125
110.599998, 77.461, -27.0037
112.000000, 77.413, -27.1208
113.800003, 77.351, -27.3534
115.000000, 77.301, -27.5064
117.199997, 77.207, -27.7621
118.000000, 77.173, -27.8714
120.599998, 77.101, -28.2199
122.000000, 77.068, -28.3436
124.099998, 76.995, -28.5149
125.000000, 76.968, -28.5971
126.500000, 76.938, -28.6633
128.000000, 76.900, -28.6898
131.500000, 76.755, -28.9051
132.000000, 76.739, -28.9492
134.000000, 76.684, -29.1748
136.000000, 76.632, -29.3340
138.000000, 76.587, -29.4542
140.000000, 76.544, -29.6503
143.000000, 76.465, -29.9242
145.000000, 76.412, -30.0138
147.500000, 76.353, -30.0925
150.000000, 76.291, -30.1118
152.500000, 76.226, -30.1782
155.000000, 76.167, -30.3239
157.500000, 76.109, -30.5013
160.000000, 76.042, -30.6388
162.500000, 75.987, -30.8140
165.000000, 75.943, -30.9526
167.500000, 75.887, -31.0315
170.000000, 75.832, -31.1722
172.500000, 75.801, -31.2115
175.000000, 75.767, -31.2282
177.500000, 75.711, -31.3014
180.000000, 75.649, -31.4580
182.500000, 75.607, -31.4492
185.000000, 75.568, -31.4791
187.500000, 75.529, -31.6216
190.000000, 75.491, -31.6738
192.500000, 75.453, -31.6759
195.000000, 75.407, -31.6876
197.500000, 75.365, -31.7162
200.000000, 75.339, -31.7553
203.000000, 75.318, -31.8550
206.000000, 75.274, -31.8873
209.000000, 75.219, -31.8913
212.000000, 75.179, -31.8751
214.000000, 75.154, -31.8819
218.000000, 75.098, -32.0181
220.000000, 75.073, -32.0741
224.000000, 75.041, -32.1878
227.000000, 75.023, -32.2286
230.000000, 75.005, -32.3048
233.000000, 74.983, -32.3879
236.000000, 74.951, -32.3971
240.000000, 74.899, -32.3954
243.000000, 74.868, -32.4511
247.000000, 74.832, -32.5614
250.000000, 74.806, -32.5708
254.000000, 74.779, -32.5518
258.000000, 74.762, -32.5489
262.000000, 74.735, -32.5784
265.000000, 74.718, -32.6096
269.000000, 74.704, -32.7409
272.000000, 74.682, -32.8179
276.000000, 74.652, -32.8375
280.000000, 74.641, -32.8615
285.000000, 74.616, -32.8622
290.000000, 74.589, -32.8837
295.000000, 74.562, -32.9148
300.000000, 74.555, -33.0061
304.000000, 74.552, -33.1463
307.000000, 74.545, -33.2179
311.000000, 74.535, -33.2830
315.000000, 74.528, -33.3133
320.000000, 74.514, -33.3675
325.000000, 74.509, -33.4857
330.000000, 74.514, -33.5735
335.000000, 74.513, -33.6949
340.000000, 74.505, -33.7550
345.000000, 74.496, -33.8192
350.000000, 74.493, -33.9887
355.000000, 74.490, -34.1447
360.000000, 74.484, -34.1957
365.000000, 74.490, -34.2537
370.000000, 74.503, -34.3468
375.000000, 74.506, -34.4203
382.000000, 74.514, -34.5905
387.000000, 74.529, -34.6856
395.000000, 74.537, -34.8215
400.000000, 74.539, -34.9608
406.000000, 74.547, -35.1566
412.000000, 74.553, -35.3310
418.000000, 74.560, -35.4428
425.000000, 74.589, -35.5823
431.000000, 74.616, -35.7354
437.000000, 74.630, -35.9167
444.000000, 74.642, -36.1021
450.000000, 74.651, -36.2156
455.000000, 74.658, -36.3240
462.000000, 74.671, -36.5316
468.000000, 74.687, -36.7159
475.000000, 74.708, -36.9605
482.000000, 74.729, -37.1956
487.000000, 74.744, -37.3416
494.000000, 74.760, -37.5319
500.000000, 74.777, -37.6923
508.000000, 74.801, -37.9645
515.000000, 74.823, -38.2213
522.000000, 74.840, -38.4347
530.000000, 74.853, -38.6514
538.000000, 74.868, -38.9149
545.000000, 74.886, -39.1319
552.000000, 74.902, -39.3607
560.000000, 74.919, -39.6066
570.000000, 74.942, -39.8923
580.000000, 74.958, -40.1531
590.000000, 74.977, -40.4304
600.000000, 74.991, -40.7714
608.000000, 75.001, -41.0269
615.000000, 75.009, -41.2092
622.000000, 75.016, -41.3621
630.000000, 75.026, -41.5731
640.000000, 75.032, -41.8776
650.000000, 75.032, -42.1147
660.000000, 75.036, -42.3029
670.000000, 75.037, -42.4619
680.000000, 75.043, -42.6047
690.000000, 75.050, -42.7648
700.000000, 75.050, -42.8689
710.000000, 75.046, -42.9467
720.000000, 75.038, -43.0956
730.000000, 75.032, -43.1850
740.000000, 75.029, -43.1910
750.000000, 75.032, -43.1722
762.000000, 75.035, -43.1447
775.000000, 75.036, -43.0757
788.000000, 75.044, -42.9706
800.000000, 75.050, -42.8841
812.000000, 75.055, -42.7110
825.000000, 75.060, -42.4991
838.000000, 75.070, -42.3043
850.000000, 75.091, -42.0959
862.000000, 75.113, -41.8239
875.000000, 75.135, -41.5058
885.000000, 75.157, -41.2631
900.000000, 75.192, -40.8931
912.000000, 75.226, -40.5700
925.000000, 75.278, -40.2467
938.000000, 75.331, -39.9041
950.000000, 75.381, -39.6190
962.000000, 75.435, -39.3032
975.000000, 75.498, -38.9361
988.000000, 75.566, -38.6044
1000.000000, 75.628, -38.3467
1015.000000, 75.714, -38.0464
1030.000000, 75.800, -37.7512
1044.000000, 75.876, -37.4300
1060.000000, 75.975, -37.0741
1075.000000, 76.072, -36.7966
1090.000000, 76.172, -36.5466
1106.000000, 76.275, -36.3506
1120.000000, 76.365, -36.2328
1138.000000, 76.487, -36.0827
1150.000000, 76.565, -35.9861
1172.000000, 76.700, -35.8850
1180.000000, 76.749, -35.8594
1206.000000, 76.903, -35.7696
1220.000000, 76.983, -35.7339
1241.000000, 77.094, -35.7444
1250.000000, 77.139, -35.7615
1265.000000, 77.212, -35.7799
1280.000000, 77.280, -35.7774
1315.000000, 77.440, -35.7546
1320.000000, 77.460, -35.7588
1340.000000, 77.537, -35.7781
1360.000000, 77.614, -35.7698
1380.000000, 77.692, -35.7618
1400.000000, 77.761, -35.7495
1430.000000, 77.857, -35.6475
1450.000000, 77.923, -35.5525
1475.000000, 78.006, -35.4575
1500.000000, 78.078, -35.3746
1525.000000, 78.147, -35.2161
1550.000000, 78.215, -35.0566
1575.000000, 78.277, -34.8552
1600.000000, 78.331, -34.6270
1625.000000, 78.386, -34.4012
1650.000000, 78.438, -34.1179
1675.000000, 78.495, -33.7329
1700.000000, 78.548, -33.3082
1725.000000, 78.605, -32.8424
1750.000000, 78.671, -32.3031
1775.000000, 78.739, -31.7115
1800.000000, 78.814, -31.0887
1825.000000, 78.902, -30.4618
1850.000000, 78.999, -29.8276
1875.000000, 79.113, -29.1797
1900.000000, 79.236, -28.5665
1925.000000, 79.362, -28.0148
1950.000000, 79.494, -27.4707
1975.000000, 79.636, -26.9271
2000.000000, 79.782, -26.4462
2030.000000, 79.954, -25.9808
2060.000000, 80.131, -25.5833
2090.000000, 80.310, -25.2426
2120.000000, 80.489, -24.9499
2140.000000, 80.611, -24.7979
2180.000000, 80.855, -24.5758
2200.000000, 80.975, -24.5029
2240.000000, 81.215, -24.4258
2270.000000, 81.391, -24.4307
2300.000000, 81.567, -24.5264
2330.000000, 81.740, -24.6537
2360.000000, 81.905, -24.8239
2400.000000, 82.118, -25.1612
2430.000000, 82.269, -25.4573
2470.000000, 82.462, -25.9435
2500.000000, 82.599, -26.3823
2540.000000, 82.771, -27.0448
2580.000000, 82.929, -27.7728
2620.000000, 83.068, -28.5369
2650.000000, 83.162, -29.1619
2690.000000, 83.266, -30.0327
2720.000000, 83.332, -30.6973
2760.000000, 83.404, -31.5895
2800.000000, 83.457, -32.4773
2850.000000, 83.495, -33.5907
2900.000000, 83.506, -34.6422
2950.000000, 83.488, -35.6495
3000.000000, 83.449, -36.5544
3040.000000, 83.406, -37.1734
3070.000000, 83.362, -37.5998
3110.000000, 83.293, -38.1023
3150.000000, 83.219, -38.5080
3200.000000, 83.121, -38.8950
3250.000000, 83.016, -39.1580
3300.000000, 82.906, -39.3146
3350.000000, 82.798, -39.3560
3400.000000, 82.693, -39.3124
3450.000000, 82.594, -39.1921
3500.000000, 82.506, -38.9962
3550.000000, 82.423, -38.7165
3600.000000, 82.345, -38.3653
3650.000000, 82.276, -37.9954
3700.000000, 82.218, -37.6183
3750.000000, 82.165, -37.2461
3820.000000, 82.102, -36.7220
3870.000000, 82.062, -36.4050
3950.000000, 82.002, -35.9653
4000.000000, 81.965, -35.7236
4060.000000, 81.905, -35.4981
4120.000000, 81.826, -35.3094
4180.000000, 81.731, -35.1040
4250.000000, 81.597, -34.7652
4310.000000, 81.465, -34.3268
4370.000000, 81.325, -33.7202
4440.000000, 81.152, -32.8425
4500.000000, 81.000, -31.8962
4550.000000, 80.873, -30.9345
4620.000000, 80.696, -29.2423
4680.000000, 80.561, -27.3270
4750.000000, 80.484, -24.4717
4820.000000, 80.583, -21.2933
4870.000000, 80.775, -19.2623
4940.000000, 81.154, -17.3787
5000.000000, 81.500, -16.8465
5080.000000, 81.887, -17.3222
5150.000000, 82.107, -18.3863
5220.000000, 82.222, -19.6805
5300.000000, 82.243, -21.1541
5380.000000, 82.167, -22.4140
5450.000000, 82.043, -23.2775
5520.000000, 81.878, -23.9041
5600.000000, 81.650, -24.2945
5700.000000, 81.337, -24.2532
5800.000000, 81.000, -23.5414
5900.000000, 80.673, -22.1160
6000.000000, 80.398, -20.1786
6080.000000, 80.216, -18.3461
6150.000000, 80.092, -16.5305
6220.000000, 80.010, -14.5767
6300.000000, 79.976, -12.1798
6400.000000, 80.044, -9.0305
6500.000000, 80.254, -5.9791
6600.000000, 80.613, -3.4382
6700.000000, 81.107, -1.8505
6800.000000, 81.681, -1.6015
6900.000000, 82.248, -2.8919
7000.000000, 82.721, -5.6869
7100.000000, 83.022, -9.6958
7200.000000, 83.108, -14.4558
7300.000000, 82.958, -19.4661
7400.000000, 82.577, -24.2537
7500.000000, 81.988, -28.3972
7620.000000, 81.067, -32.0461
7750.000000, 79.901, -34.0387
7880.000000, 78.669, -33.8224
8000.000000, 77.568, -31.6376
8120.000000, 76.607, -27.6472
8250.000000, 75.841, -21.9681
8380.000000, 75.418, -16.1807
8500.000000, 75.226, -11.8030
8620.000000, 75.077, -8.3876
8750.000000, 74.894, -4.9646
8850.000000, 74.770, -2.1153
9000.000000, 74.706, 2.4678
9120.000000, 74.815, 5.8722
9250.000000, 75.065, 8.5405
9380.000000, 75.339, 9.7254
9500.000000, 75.490, 9.6014
9620.000000, 75.463, 8.9175
9750.000000, 75.256, 8.5239
9880.000000, 74.962, 8.8852
10000.000000, 74.660, 9.9127
10150.000000, 74.303, 12.1953
10300.000000, 74.043, 15.3305
10440.000000, 73.934, 18.6209
10600.000000, 73.977, 22.3929
10750.000000, 74.169, 25.5673
10900.000000, 74.492, 28.0560
11060.000000, 74.940, 29.6043
11200.000000, 75.376, 29.7702
11380.000000, 75.914, 28.1123
11500.000000, 76.199, 25.8093
11720.000000, 76.364, 19.5126
11800.000000, 76.251, 16.9014
12060.000000, 75.273, 10.5377
12200.000000, 74.560, 9.3115
12410.000000, 73.738, 11.5051
12500.000000, 73.706, 12.5503
12650.000000, 73.745, 10.4863
12800.000000, 73.266, 6.7001
13150.000000, 71.405, 4.1460
13200.000000, 71.153, 4.1570
13400.000000, 70.167, 4.4181
13600.000000, 69.124, 5.1731
13800.000000, 68.013, 6.6251
14000.000000, 66.878, 9.0536
14300.000000, 65.231, 14.9169
14500.000000, 64.227, 20.2675
14750.000000, 63.186, 28.2686
15000.000000, 62.421, 37.0533
15250.000000, 61.954, 46.5130
15500.000000, 61.857, 55.7583
15750.000000, 62.146, 63.8542
16000.000000, 62.697, 70.3576
16250.000000, 63.425, 74.5198
16500.000000, 64.210, 76.0131
16750.000000, 64.884, 74.9039
17000.000000, 65.334, 71.4024
17250.000000, 65.457, 66.2903
17500.000000, 65.176, 60.3626
17750.000000, 64.470, 54.4048
18000.000000, 63.352, 49.4947
18250.000000, 62.101, 45.8136
18500.000000, 60.682, 40.9933
18750.000000, 58.753, 36.3995
19000.000000, 56.466, 33.1070
19250.000000, 53.998, 30.3533
19500.000000, 51.375, 27.3448
19750.000000, 48.678, 24.0212
