* Measurement data measured by REW V5.31.3
* Source: Input device not selected, no input selected, L, volume: no control
* Format: 256k Log Swept Sine, 1 sweep at -11.0 dBFS with no timing reference
* Dated: Jul 18, 2025 3:35:32 PM
* REW Settings:
*  C-weighting compensation: Off
*  Target level: 75.0 dB
* Note: ; 
* Measurement: M-121i (Sancai Narrow) L
* Smoothing: 1/24 octave
* Frequency Step: 1/48 octave
* Start Frequency: 20.300 Hz
*
* Freq(Hz), SPL(dB), Phase(degrees)
20.299999, 81.847, 16.2370
20.600000, 81.849, 15.7609
20.900000, 81.850, 15.2232
21.200001, 81.853, 14.6794
21.400000, 81.856, 14.3175
21.799999, 81.865, 13.6041
22.000000, 81.871, 13.2578
22.400000, 81.884, 12.5944
22.700001, 81.893, 12.1215
23.000000, 81.902, 11.6616
23.299999, 81.909, 11.2037
23.600000, 81.913, 10.7386
24.000000, 81.912, 10.1025
24.299999, 81.907, 9.6195
24.700001, 81.897, 8.9855
25.000000, 81.890, 8.5290
25.400000, 81.885, 7.9528
25.799999, 81.884, 7.4069
26.200001, 81.888, 6.8743
26.500000, 81.891, 6.4739
26.900000, 81.891, 5.9323
27.200001, 81.887, 5.5222
27.600000, 81.876, 4.9791
28.000000, 81.862, 4.4531
28.500000, 81.843, 3.8334
29.000000, 81.827, 3.2525
29.500000, 81.814, 2.6904
30.000000, 81.801, 2.1258
30.400000, 81.788, 1.6656
30.700001, 81.777, 1.3150
31.100000, 81.763, 0.8412
31.500000, 81.752, 0.3630
32.000000, 81.739, -0.2278
32.500000, 81.724, -0.7836
33.000000, 81.703, -1.2773
33.500000, 81.680, -1.7138
34.000000, 81.656, -2.1369
34.500000, 81.635, -2.5960
35.000000, 81.616, -3.0989
35.500000, 81.596, -3.6022
36.000000, 81.576, -4.0573
36.500000, 81.558, -4.4620
37.000000, 81.543, -4.8628
37.500000, 81.524, -5.3004
38.200001, 81.488, -5.9451
38.700001, 81.460, -6.3714
39.500000, 81.418, -6.9734
40.000000, 81.388, -7.3301
40.599998, 81.349, -7.7401
41.200001, 81.318, -8.1368
41.799999, 81.298, -8.5623
42.500000, 81.266, -9.0498
43.099998, 81.217, -9.3248
43.700001, 81.171, -9.4988
44.400002, 81.143, -9.9152
45.000000, 81.122, -10.5596
45.500000, 81.093, -11.1104
46.200001, 81.051, -11.6154
46.799999, 81.031, -11.8812
47.500000, 81.003, -12.2794
48.200001, 80.951, -12.7831
48.700001, 80.913, -13.1117
49.400002, 80.879, -13.5092
50.000000, 80.855, -13.8467
50.799999, 80.807, -14.3046
51.500000, 80.755, -14.6950
52.200001, 80.712, -15.0735
53.000000, 80.673, -15.4593
53.799999, 80.630, -15.8158
54.500000, 80.586, -16.1613
55.200001, 80.546, -16.5125
56.000000, 80.527, -16.8576
57.000000, 80.515, -17.2532
58.000000, 80.451, -17.6624
59.000000, 80.355, -18.0786
60.000000, 80.277, -18.5239
60.799999, 80.227, -18.8620
61.500000, 80.190, -19.1303
62.200001, 80.156, -19.3786
63.000000, 80.118, -19.6481
64.000000, 80.064, -19.9907
65.000000, 79.998, -20.3495
66.000000, 79.936, -20.6979
67.000000, 79.883, -21.0108
68.000000, 79.831, -21.3025
69.000000, 79.776, -21.5755
70.000000, 79.723, -21.8380
71.000000, 79.669, -22.1053
72.000000, 79.613, -22.3655
73.000000, 79.558, -22.6405
74.000000, 79.502, -22.9161
75.000000, 79.449, -23.1779
76.199997, 79.392, -23.4973
77.500000, 79.329, -23.8153
78.800003, 79.260, -24.0985
80.000000, 79.199, -24.4094
81.199997, 79.141, -24.6701
82.500000, 79.070, -24.9151
83.800003, 79.000, -25.2034
85.000000, 78.945, -25.4410
86.199997, 78.890, -25.6612
87.500000, 78.830, -25.8944
88.500000, 78.781, -26.0242
90.000000, 78.709, -26.2605
91.199997, 78.653, -26.5048
92.500000, 78.595, -26.6827
93.800003, 78.539, -26.8742
95.000000, 78.488, -27.0119
96.199997, 78.437, -27.1512
97.500000, 78.383, -27.3832
98.800003, 78.337, -27.6154
100.000000, 78.285, -27.7899
101.500000, 78.210, -27.9383
103.000000, 78.141, -28.0431
104.400002, 78.077, -28.1429
106.000000, 77.997, -28.4920
107.500000, 77.935, -28.6900
109.000000, 77.892, -28.6792
110.599998, 77.843, -28.7227
112.000000, 77.792, -28.8146
113.800003, 77.722, -28.9259
115.000000, 77.671, -28.9984
117.199997, 77.587, -29.2271
118.000000, 77.562, -29.2940
120.599998, 77.472, -29.4200
122.000000, 77.423, -29.5187
124.099998, 77.359, -29.7388
125.000000, 77.334, -29.7938
126.500000, 77.283, -29.8303
128.000000, 77.232, -29.8648
131.500000, 77.128, -30.0522
132.000000, 77.113, -30.0739
134.000000, 77.056, -30.1425
136.000000, 77.001, -30.2593
138.000000, 76.935, -30.3927
140.000000, 76.864, -30.4317
143.000000, 76.783, -30.4677
145.000000, 76.738, -30.5456
147.500000, 76.671, -30.5965
150.000000, 76.607, -30.6620
152.500000, 76.549, -30.7417
155.000000, 76.491, -30.7898
157.500000, 76.427, -30.7933
160.000000, 76.362, -30.8287
162.500000, 76.309, -30.8719
165.000000, 76.267, -30.9035
167.500000, 76.215, -30.9423
170.000000, 76.158, -31.0115
172.500000, 76.103, -31.0157
175.000000, 76.053, -30.9842
177.500000, 76.007, -30.9602
180.000000, 75.960, -30.9906
182.500000, 75.913, -31.0403
185.000000, 75.866, -31.0624
187.500000, 75.823, -31.0787
190.000000, 75.785, -31.0778
192.500000, 75.745, -31.1123
195.000000, 75.699, -31.1566
197.500000, 75.655, -31.1618
200.000000, 75.613, -31.1426
203.000000, 75.570, -31.1161
206.000000, 75.526, -31.1015
209.000000, 75.481, -31.0785
212.000000, 75.439, -31.0708
214.000000, 75.412, -31.0696
218.000000, 75.357, -31.0401
220.000000, 75.330, -31.0337
224.000000, 75.277, -31.0235
227.000000, 75.238, -31.0156
230.000000, 75.202, -30.9957
233.000000, 75.166, -30.9393
236.000000, 75.131, -30.8075
240.000000, 75.070, -30.6819
243.000000, 75.026, -30.6131
247.000000, 74.981, -30.4207
250.000000, 74.944, -30.2086
254.000000, 74.889, -29.8968
258.000000, 74.870, -29.4884
262.000000, 74.879, -29.0350
265.000000, 74.902, -28.6704
269.000000, 74.970, -28.3750
272.000000, 75.028, -28.4207
276.000000, 75.092, -28.6536
280.000000, 75.134, -28.9979
285.000000, 75.151, -29.4533
290.000000, 75.145, -29.8988
295.000000, 75.125, -30.1847
300.000000, 75.093, -30.3658
304.000000, 75.064, -30.5213
307.000000, 75.046, -30.6303
311.000000, 75.030, -30.7329
315.000000, 75.018, -30.8053
320.000000, 75.000, -30.8691
325.000000, 74.980, -30.9385
330.000000, 74.967, -31.0462
335.000000, 74.957, -31.1566
340.000000, 74.946, -31.2144
345.000000, 74.937, -31.2799
350.000000, 74.936, -31.3289
355.000000, 74.931, -31.3733
360.000000, 74.927, -31.4366
365.000000, 74.924, -31.5268
370.000000, 74.922, -31.6137
375.000000, 74.926, -31.6609
382.000000, 74.934, -31.7387
387.000000, 74.938, -31.8249
395.000000, 74.944, -31.9306
400.000000, 74.949, -32.0009
406.000000, 74.960, -32.0844
412.000000, 74.971, -32.1935
418.000000, 74.978, -32.2866
425.000000, 74.986, -32.3896
431.000000, 74.992, -32.4997
437.000000, 75.004, -32.6165
444.000000, 75.023, -32.7384
450.000000, 75.036, -32.8402
455.000000, 75.046, -32.9396
462.000000, 75.059, -33.1080
468.000000, 75.071, -33.2298
475.000000, 75.088, -33.3443
482.000000, 75.104, -33.4661
487.000000, 75.112, -33.5592
494.000000, 75.123, -33.7223
500.000000, 75.132, -33.8776
508.000000, 75.144, -34.0563
515.000000, 75.154, -34.1713
522.000000, 75.162, -34.2886
530.000000, 75.171, -34.4186
538.000000, 75.178, -34.4978
545.000000, 75.182, -34.4942
552.000000, 75.188, -34.4520
560.000000, 75.205, -34.3860
570.000000, 75.253, -34.2600
580.000000, 75.328, -34.2565
590.000000, 75.410, -34.4444
600.000000, 75.478, -34.8251
608.000000, 75.514, -35.1349
615.000000, 75.536, -35.3893
622.000000, 75.550, -35.6424
630.000000, 75.558, -35.9256
640.000000, 75.567, -36.2486
650.000000, 75.572, -36.4702
660.000000, 75.574, -36.6667
670.000000, 75.578, -36.8635
680.000000, 75.580, -37.0160
690.000000, 75.579, -37.1299
700.000000, 75.581, -37.2135
710.000000, 75.585, -37.2961
720.000000, 75.584, -37.3675
730.000000, 75.581, -37.3795
740.000000, 75.578, -37.3445
750.000000, 75.577, -37.3147
762.000000, 75.575, -37.2747
775.000000, 75.576, -37.2003
788.000000, 75.578, -37.0472
800.000000, 75.585, -36.8595
812.000000, 75.593, -36.6476
825.000000, 75.605, -36.3742
838.000000, 75.619, -36.0905
850.000000, 75.633, -35.8270
862.000000, 75.653, -35.5394
875.000000, 75.679, -35.1792
885.000000, 75.701, -34.8801
900.000000, 75.742, -34.4387
912.000000, 75.782, -34.0888
925.000000, 75.829, -33.6762
938.000000, 75.881, -33.2673
950.000000, 75.929, -32.9043
962.000000, 75.979, -32.5368
975.000000, 76.042, -32.1660
988.000000, 76.112, -31.7876
1000.000000, 76.177, -31.4546
1015.000000, 76.259, -31.1013
1030.000000, 76.341, -30.7197
1044.000000, 76.420, -30.3335
1060.000000, 76.517, -29.9374
1075.000000, 76.616, -29.6323
1090.000000, 76.716, -29.3729
1106.000000, 76.818, -29.1034
1120.000000, 76.909, -28.9089
1138.000000, 77.025, -28.7167
1150.000000, 77.100, -28.5975
1172.000000, 77.230, -28.4152
1180.000000, 77.275, -28.3706
1206.000000, 77.420, -28.2463
1220.000000, 77.495, -28.1726
1241.000000, 77.603, -28.0785
1250.000000, 77.646, -28.0470
1265.000000, 77.715, -28.0047
1280.000000, 77.780, -27.9690
1315.000000, 77.924, -27.8407
1320.000000, 77.943, -27.8253
1340.000000, 78.016, -27.7553
1360.000000, 78.084, -27.6897
1380.000000, 78.148, -27.6307
1400.000000, 78.207, -27.5291
1430.000000, 78.295, -27.3100
1450.000000, 78.348, -27.1563
1475.000000, 78.405, -26.9499
1500.000000, 78.459, -26.7341
1525.000000, 78.510, -26.4934
1550.000000, 78.558, -26.2016
1575.000000, 78.600, -25.8717
1600.000000, 78.638, -25.5213
1625.000000, 78.673, -25.1096
1650.000000, 78.701, -24.6153
1675.000000, 78.728, -24.0311
1700.000000, 78.760, -23.3891
1725.000000, 78.799, -22.6730
1750.000000, 78.845, -21.8823
1775.000000, 78.904, -21.0511
1800.000000, 78.977, -20.1892
1825.000000, 79.062, -19.3195
1850.000000, 79.162, -18.4715
1875.000000, 79.272, -17.6608
1900.000000, 79.389, -16.8939
1925.000000, 79.513, -16.1832
1950.000000, 79.644, -15.5403
1975.000000, 79.780, -14.9433
2000.000000, 79.918, -14.3828
2030.000000, 80.084, -13.7780
2060.000000, 80.251, -13.2431
2090.000000, 80.417, -12.7549
2120.000000, 80.585, -12.3200
2140.000000, 80.697, -12.0660
2180.000000, 80.922, -11.6257
2200.000000, 81.032, -11.4414
2240.000000, 81.250, -11.1577
2270.000000, 81.412, -10.9983
2300.000000, 81.570, -10.8795
2330.000000, 81.726, -10.8142
2360.000000, 81.877, -10.7957
2400.000000, 82.074, -10.8444
2430.000000, 82.216, -10.9396
2470.000000, 82.395, -11.1365
2500.000000, 82.521, -11.3271
2540.000000, 82.680, -11.6369
2580.000000, 82.829, -11.9885
2620.000000, 82.967, -12.3732
2650.000000, 83.066, -12.6829
2690.000000, 83.194, -13.1318
2720.000000, 83.285, -13.5266
2760.000000, 83.396, -14.1633
2800.000000, 83.488, -14.8967
2850.000000, 83.568, -15.8848
2900.000000, 83.608, -16.8699
2950.000000, 83.613, -17.7857
3000.000000, 83.591, -18.6189
3040.000000, 83.557, -19.2200
3070.000000, 83.523, -19.6271
3110.000000, 83.466, -20.1049
3150.000000, 83.398, -20.5135
3200.000000, 83.299, -20.9177
3250.000000, 83.188, -21.1706
3300.000000, 83.069, -21.2619
3350.000000, 82.948, -21.1799
3400.000000, 82.834, -20.9513
3450.000000, 82.731, -20.6213
3500.000000, 82.638, -20.2139
3550.000000, 82.553, -19.7630
3600.000000, 82.477, -19.2726
3650.000000, 82.409, -18.7411
3700.000000, 82.347, -18.1804
3750.000000, 82.291, -17.5974
3820.000000, 82.227, -16.7666
3870.000000, 82.190, -16.1787
3950.000000, 82.140, -15.2622
4000.000000, 82.110, -14.7181
4060.000000, 82.074, -14.0889
4120.000000, 82.035, -13.4944
4180.000000, 81.991, -12.9159
4250.000000, 81.931, -12.2241
4310.000000, 81.870, -11.5930
4370.000000, 81.802, -10.9209
4440.000000, 81.708, -10.0559
4500.000000, 81.612, -9.1801
4550.000000, 81.523, -8.3139
4620.000000, 81.388, -6.7443
4680.000000, 81.287, -4.8894
4750.000000, 81.258, -2.0924
4820.000000, 81.402, 0.9961
4870.000000, 81.623, 2.9043
4940.000000, 82.030, 4.5628
5000.000000, 82.385, 4.9587
5080.000000, 82.771, 4.4309
5150.000000, 83.006, 3.4473
5220.000000, 83.150, 2.2894
5300.000000, 83.221, 0.9541
5380.000000, 83.212, -0.2376
5450.000000, 83.153, -1.0940
5520.000000, 83.059, -1.7475
5600.000000, 82.921, -2.2242
5700.000000, 82.718, -2.3852
5800.000000, 82.503, -2.0506
5900.000000, 82.299, -1.2062
6000.000000, 82.137, 0.1741
6080.000000, 82.062, 1.5362
6150.000000, 82.040, 2.8071
6220.000000, 82.062, 4.1260
6300.000000, 82.151, 5.6303
6400.000000, 82.365, 7.3482
6500.000000, 82.701, 8.5646
6600.000000, 83.146, 8.8742
6700.000000, 83.650, 7.8885
6800.000000, 84.130, 5.3925
6900.000000, 84.491, 1.4500
7000.000000, 84.657, -3.5857
7100.000000, 84.580, -9.2033
7200.000000, 84.250, -14.8490
7300.000000, 83.683, -20.0457
7400.000000, 82.911, -24.3802
7500.000000, 81.984, -27.5175
7620.000000, 80.752, -29.5218
7750.000000, 79.375, -29.5915
7880.000000, 78.032, -27.5674
8000.000000, 76.885, -23.8762
8120.000000, 75.909, -18.5403
8250.000000, 75.165, -11.5077
8380.000000, 74.802, -4.4802
8500.000000, 74.698, 0.9462
8620.000000, 74.661, 5.3180
8750.000000, 74.624, 9.6782
8850.000000, 74.635, 13.2166
9000.000000, 74.839, 18.8355
9120.000000, 75.255, 22.9907
9250.000000, 75.971, 25.9239
9380.000000, 76.822, 25.9354
9500.000000, 77.461, 22.8964
9620.000000, 77.705, 17.9212
9750.000000, 77.440, 12.6278
9880.000000, 76.797, 9.3029
10000.000000, 76.079, 8.6198
10150.000000, 75.289, 10.6184
10300.000000, 74.811, 14.4742
10440.000000, 74.687, 18.5215
10600.000000, 74.893, 22.6056
10750.000000, 75.369, 25.1456
10900.000000, 76.040, 25.7394
11060.000000, 76.842, 23.6025
11200.000000, 77.454, 19.1327
11380.000000, 77.846, 10.3825
11500.000000, 77.750, 3.5329
11720.000000, 76.788, -8.4722
11800.000000, 76.211, -12.0210
12060.000000, 73.904, -17.9540
12200.000000, 72.703, -18.0065
12410.000000, 71.359, -14.3306
12500.000000, 71.155, -12.7205
12650.000000, 71.003, -14.1075
12800.000000, 70.372, -17.9592
13150.000000, 67.867, -21.6116
13200.000000, 67.491, -21.6472
13400.000000, 65.969, -21.0254
13600.000000, 64.428, -19.0395
13800.000000, 62.908, -15.6047
14000.000000, 61.468, -10.6312
14300.000000, 59.535, -0.9426
14500.000000, 58.465, 6.6105
14750.000000, 57.401, 16.6021
15000.000000, 56.670, 27.5883
15250.000000, 56.333, 38.9693
15500.000000, 56.361, 49.8140
15750.000000, 56.792, 59.9225
16000.000000, 57.660, 68.5994
16250.000000, 58.933, 74.9648
16500.000000, 60.553, 78.1858
16750.000000, 62.496, 76.9862
17000.000000, 64.595, 69.3907
17250.000000, 66.298, 53.5748
17500.000000, 66.686, 30.9437
17750.000000, 65.157, 7.8204
18000.000000, 62.010, -7.9763
18250.000000, 58.306, -14.0255
18500.000000, 54.948, -15.6963
18750.000000, 51.839, -15.7870
19000.000000, 48.892, -14.4564
19250.000000, 46.101, -13.0090
19500.000000, 43.383, -13.0240
19750.000000, 41.064, -14.8870
