* Measurement data measured by REW V5.31.3
* Source: Input device not selected, no input selected, L, volume: no control
* Format: 256k Log Swept Sine, 1 sweep at -12.0 dBFS with no timing reference
* Dated: Sep 7, 2024 4:01:35 PM
* REW Settings:
*  C-weighting compensation: Off
*  Target level: 75.0 dB
* Note: ; 
* Measurement: N3 (Final E M)
* Smoothing: 1/24 octave
* Frequency Step: 1/48 octave
* Start Frequency: 20.300 Hz
*
* Freq(Hz), SPL(dB), Phase(degrees)
20.299999, 83.006, -157.9918
20.600000, 83.022, -158.4792
20.900000, 83.038, -159.0150
21.200001, 83.052, -159.5745
21.400000, 83.060, -159.9620
21.799999, 83.074, -160.7612
22.000000, 83.078, -161.1627
22.400000, 83.083, -161.9402
22.700001, 83.086, -162.4844
23.000000, 83.089, -162.9921
23.299999, 83.095, -163.4720
23.600000, 83.102, -163.9392
24.000000, 83.112, -164.5689
24.299999, 83.119, -165.0582
24.700001, 83.124, -165.7339
25.000000, 83.126, -166.2483
25.400000, 83.126, -166.9214
25.799999, 83.126, -167.5569
26.200001, 83.131, -168.1447
26.500000, 83.136, -168.5601
26.900000, 83.141, -169.0957
27.200001, 83.141, -169.4920
27.600000, 83.131, -170.0134
28.000000, 83.110, -170.5183
28.500000, 83.082, -171.1294
29.000000, 83.065, -171.7670
29.500000, 83.061, -172.4734
30.000000, 83.051, -173.1783
30.400000, 83.036, -173.6409
30.700001, 83.023, -173.9021
31.100000, 83.013, -174.1828
31.500000, 83.014, -174.5033
32.000000, 83.010, -175.1134
32.500000, 82.972, -175.8857
33.000000, 82.906, -176.5101
33.500000, 82.860, -176.7826
34.000000, 82.877, -176.8888
34.500000, 82.932, -177.1847
35.000000, 82.961, -177.8081
35.500000, 82.927, -178.5706
36.000000, 82.854, -179.2416
36.500000, 82.793, -179.7977
37.000000, 82.766, 179.6461
37.500000, 82.758, 179.0665
38.200001, 82.746, 178.4375
38.700001, 82.743, 178.1788
39.500000, 82.752, 177.7643
40.000000, 82.746, 177.3712
40.599998, 82.720, 176.8465
41.200001, 82.687, 176.3629
41.799999, 82.653, 175.9078
42.500000, 82.603, 175.3746
43.099998, 82.548, 174.9282
43.700001, 82.494, 174.4782
44.400002, 82.440, 173.9176
45.000000, 82.396, 173.4528
45.500000, 82.361, 173.1362
46.200001, 82.320, 172.8322
46.799999, 82.292, 172.6391
47.500000, 82.257, 172.3707
48.200001, 82.212, 171.9876
48.700001, 82.175, 171.6482
49.400002, 82.123, 171.1237
50.000000, 82.080, 170.6852
50.799999, 82.023, 170.2011
51.500000, 81.976, 169.8621
52.200001, 81.931, 169.5202
53.000000, 81.884, 169.0829
53.799999, 81.840, 168.6649
54.500000, 81.800, 168.3692
55.200001, 81.757, 168.1139
56.000000, 81.707, 167.7835
57.000000, 81.642, 167.2903
58.000000, 81.575, 166.8703
59.000000, 81.513, 166.5306
60.000000, 81.453, 166.1746
60.799999, 81.405, 165.8837
61.500000, 81.361, 165.6331
62.200001, 81.314, 165.3972
63.000000, 81.262, 165.1534
64.000000, 81.200, 164.8621
65.000000, 81.132, 164.5656
66.000000, 81.063, 164.2590
67.000000, 81.000, 163.9332
68.000000, 80.938, 163.6350
69.000000, 80.881, 163.3784
70.000000, 80.825, 163.1619
71.000000, 80.765, 163.0322
72.000000, 80.703, 162.8695
73.000000, 80.636, 162.5842
74.000000, 80.571, 162.3258
75.000000, 80.512, 162.1514
76.199997, 80.440, 161.9244
77.500000, 80.359, 161.6221
78.800003, 80.276, 161.3629
80.000000, 80.204, 161.1676
81.199997, 80.136, 160.9755
82.500000, 80.047, 160.8152
83.800003, 79.961, 160.6368
85.000000, 79.898, 160.4329
86.199997, 79.834, 160.2790
87.500000, 79.751, 160.1692
88.500000, 79.686, 160.0923
90.000000, 79.599, 159.9549
91.199997, 79.533, 159.8467
92.500000, 79.461, 159.7411
93.800003, 79.388, 159.6541
95.000000, 79.321, 159.5759
96.199997, 79.253, 159.5069
97.500000, 79.183, 159.4439
98.800003, 79.113, 159.3886
100.000000, 79.049, 159.3428
101.500000, 78.968, 159.2703
103.000000, 78.884, 159.2047
104.400002, 78.810, 159.1612
106.000000, 78.730, 159.1498
107.500000, 78.656, 159.1240
109.000000, 78.582, 159.0969
110.599998, 78.500, 159.0767
112.000000, 78.431, 159.0878
113.800003, 78.340, 159.1174
115.000000, 78.282, 159.1255
117.199997, 78.179, 159.1619
118.000000, 78.140, 159.1893
120.599998, 78.012, 159.2670
122.000000, 77.944, 159.2996
124.099998, 77.849, 159.3665
125.000000, 77.808, 159.4052
126.500000, 77.741, 159.4624
128.000000, 77.674, 159.5175
131.500000, 77.516, 159.7100
132.000000, 77.493, 159.7365
134.000000, 77.402, 159.8544
136.000000, 77.314, 160.0110
138.000000, 77.225, 160.1427
140.000000, 77.139, 160.2802
143.000000, 77.018, 160.4867
145.000000, 76.939, 160.6348
147.500000, 76.841, 160.8532
150.000000, 76.741, 161.0799
152.500000, 76.642, 161.2910
155.000000, 76.548, 161.5292
157.500000, 76.455, 161.7719
160.000000, 76.365, 162.0110
162.500000, 76.272, 162.2559
165.000000, 76.179, 162.5439
167.500000, 76.089, 162.8209
170.000000, 76.001, 163.0602
172.500000, 75.913, 163.3347
175.000000, 75.826, 163.6344
177.500000, 75.740, 163.9637
180.000000, 75.654, 164.2840
182.500000, 75.563, 164.5981
185.000000, 75.478, 164.9097
187.500000, 75.395, 165.2309
190.000000, 75.311, 165.5811
192.500000, 75.225, 165.9589
195.000000, 75.140, 166.3699
197.500000, 75.055, 166.7975
200.000000, 74.972, 167.2189
203.000000, 74.873, 167.7541
206.000000, 74.777, 168.3818
209.000000, 74.690, 169.0714
212.000000, 74.614, 169.8088
214.000000, 74.572, 170.3470
218.000000, 74.514, 171.4471
220.000000, 74.502, 171.9423
224.000000, 74.499, 172.7743
227.000000, 74.501, 173.2365
230.000000, 74.495, 173.5663
233.000000, 74.477, 173.8111
236.000000, 74.448, 174.0104
240.000000, 74.387, 174.2517
243.000000, 74.332, 174.4628
247.000000, 74.258, 174.8021
250.000000, 74.202, 175.0743
254.000000, 74.126, 175.4814
258.000000, 74.047, 175.9382
262.000000, 73.967, 176.3785
265.000000, 73.909, 176.7177
269.000000, 73.838, 177.2214
272.000000, 73.784, 177.6101
276.000000, 73.708, 178.1074
280.000000, 73.634, 178.6341
285.000000, 73.547, 179.3250
290.000000, 73.460, 179.9855
295.000000, 73.370, -179.3419
300.000000, 73.289, -178.6644
304.000000, 73.226, -178.0918
307.000000, 73.182, -177.6526
311.000000, 73.122, -177.0551
315.000000, 73.063, -176.4546
320.000000, 72.994, -175.7309
325.000000, 72.927, -175.0532
330.000000, 72.861, -174.3415
335.000000, 72.799, -173.6018
340.000000, 72.739, -172.8699
345.000000, 72.681, -172.1393
350.000000, 72.624, -171.4248
355.000000, 72.570, -170.6918
360.000000, 72.517, -169.9504
365.000000, 72.465, -169.2283
370.000000, 72.412, -168.4971
375.000000, 72.358, -167.7462
382.000000, 72.292, -166.7207
387.000000, 72.249, -166.0131
395.000000, 72.188, -164.8735
400.000000, 72.153, -164.1797
406.000000, 72.109, -163.3387
412.000000, 72.062, -162.4676
418.000000, 72.015, -161.6393
425.000000, 71.963, -160.7047
431.000000, 71.921, -159.8872
437.000000, 71.878, -159.0510
444.000000, 71.831, -158.0729
450.000000, 71.794, -157.2554
455.000000, 71.766, -156.5738
462.000000, 71.734, -155.6410
468.000000, 71.704, -154.8291
475.000000, 71.662, -153.8613
482.000000, 71.622, -152.8861
487.000000, 71.598, -152.1978
494.000000, 71.568, -151.2481
500.000000, 71.541, -150.4818
508.000000, 71.510, -149.4468
515.000000, 71.483, -148.5385
522.000000, 71.454, -147.6228
530.000000, 71.422, -146.5754
538.000000, 71.392, -145.5733
545.000000, 71.369, -144.6615
552.000000, 71.345, -143.7222
560.000000, 71.319, -142.6897
570.000000, 71.294, -141.4002
580.000000, 71.273, -140.1226
590.000000, 71.248, -138.8676
600.000000, 71.234, -137.6268
608.000000, 71.221, -136.6337
615.000000, 71.209, -135.7420
622.000000, 71.198, -134.8602
630.000000, 71.189, -133.8822
640.000000, 71.178, -132.6445
650.000000, 71.167, -131.4099
660.000000, 71.160, -130.2019
670.000000, 71.159, -128.9832
680.000000, 71.157, -127.7309
690.000000, 71.154, -126.4982
700.000000, 71.153, -125.2673
710.000000, 71.153, -124.0746
720.000000, 71.159, -122.8782
730.000000, 71.166, -121.6505
740.000000, 71.169, -120.4312
750.000000, 71.178, -119.2129
762.000000, 71.195, -117.7944
775.000000, 71.219, -116.2616
788.000000, 71.246, -114.7372
800.000000, 71.271, -113.3291
812.000000, 71.299, -111.8992
825.000000, 71.334, -110.3984
838.000000, 71.380, -108.9285
850.000000, 71.427, -107.5442
862.000000, 71.475, -106.2015
875.000000, 71.529, -104.7774
885.000000, 71.573, -103.6679
900.000000, 71.649, -102.0093
912.000000, 71.714, -100.7274
925.000000, 71.784, -99.3798
938.000000, 71.854, -98.0715
950.000000, 71.922, -96.8940
962.000000, 71.993, -95.7076
975.000000, 72.069, -94.3868
988.000000, 72.152, -93.0282
1000.000000, 72.241, -91.8157
1015.000000, 72.356, -90.3408
1030.000000, 72.485, -88.9664
1044.000000, 72.604, -87.7822
1060.000000, 72.737, -86.5412
1075.000000, 72.867, -85.4364
1090.000000, 72.998, -84.3571
1106.000000, 73.138, -83.2834
1120.000000, 73.261, -82.4173
1138.000000, 73.412, -81.3736
1150.000000, 73.510, -80.7208
1172.000000, 73.686, -79.5992
1180.000000, 73.747, -79.2198
1206.000000, 73.936, -78.0664
1220.000000, 74.036, -77.4898
1241.000000, 74.179, -76.7163
1250.000000, 74.236, -76.4184
1265.000000, 74.325, -75.9565
1280.000000, 74.406, -75.5287
1315.000000, 74.561, -74.6050
1320.000000, 74.579, -74.4908
1340.000000, 74.632, -74.0679
1360.000000, 74.655, -73.6323
1380.000000, 74.642, -73.1166
1400.000000, 74.596, -72.4488
1430.000000, 74.490, -70.8177
1450.000000, 74.433, -69.1726
1475.000000, 74.440, -66.7061
1500.000000, 74.550, -64.1513
1525.000000, 74.736, -61.8746
1550.000000, 74.964, -60.0581
1575.000000, 75.197, -58.6378
1600.000000, 75.418, -57.4926
1625.000000, 75.625, -56.5355
1650.000000, 75.816, -55.6922
1675.000000, 75.994, -54.9266
1700.000000, 76.161, -54.2087
1725.000000, 76.317, -53.5210
1750.000000, 76.466, -52.8817
1775.000000, 76.612, -52.2865
1800.000000, 76.751, -51.7251
1825.000000, 76.888, -51.1958
1850.000000, 77.021, -50.6924
1875.000000, 77.149, -50.2157
1900.000000, 77.270, -49.7705
1925.000000, 77.386, -49.3722
1950.000000, 77.499, -49.0053
1975.000000, 77.608, -48.6712
2000.000000, 77.712, -48.3728
2030.000000, 77.832, -48.0429
2060.000000, 77.944, -47.7610
2090.000000, 78.050, -47.5355
2120.000000, 78.148, -47.3430
2140.000000, 78.207, -47.2275
2180.000000, 78.315, -47.0416
2200.000000, 78.364, -46.9722
2240.000000, 78.452, -46.8768
2270.000000, 78.505, -46.8199
2300.000000, 78.549, -46.7836
2330.000000, 78.583, -46.7702
2360.000000, 78.608, -46.7667
2400.000000, 78.627, -46.7599
2430.000000, 78.630, -46.7490
2470.000000, 78.618, -46.7196
2500.000000, 78.597, -46.6733
2540.000000, 78.556, -46.5745
2580.000000, 78.500, -46.4302
2620.000000, 78.426, -46.2371
2650.000000, 78.360, -46.0482
2690.000000, 78.260, -45.7234
2720.000000, 78.178, -45.3996
2760.000000, 78.058, -44.8692
2800.000000, 77.929, -44.2010
2850.000000, 77.760, -43.1376
2900.000000, 77.590, -41.7884
2950.000000, 77.438, -40.1742
3000.000000, 77.314, -38.2698
3040.000000, 77.243, -36.6316
3070.000000, 77.210, -35.3743
3110.000000, 77.191, -33.6903
3150.000000, 77.193, -32.0027
3200.000000, 77.228, -29.9178
3250.000000, 77.303, -27.8735
3300.000000, 77.418, -25.9256
3350.000000, 77.572, -24.1442
3400.000000, 77.762, -22.5828
3450.000000, 77.984, -21.3200
3500.000000, 78.229, -20.4185
3550.000000, 78.486, -19.9322
3600.000000, 78.742, -19.8993
3650.000000, 78.980, -20.3598
3700.000000, 79.180, -21.3190
3750.000000, 79.319, -22.7185
3820.000000, 79.371, -25.2397
3870.000000, 79.287, -27.2216
3950.000000, 78.927, -30.1589
4000.000000, 78.574, -31.5187
4060.000000, 78.057, -32.3513
4120.000000, 77.491, -32.1214
4180.000000, 76.940, -30.8112
4250.000000, 76.389, -28.1618
4310.000000, 76.036, -25.2617
4370.000000, 75.810, -22.1184
4440.000000, 75.695, -18.5800
4500.000000, 75.697, -15.9327
4550.000000, 75.747, -14.1088
4620.000000, 75.849, -12.1941
4680.000000, 75.938, -11.1118
4750.000000, 76.008, -10.4010
4820.000000, 76.014, -10.1011
4870.000000, 75.972, -10.0200
4940.000000, 75.850, -9.9643
5000.000000, 75.691, -9.8480
5080.000000, 75.414, -9.4300
5150.000000, 75.128, -8.7506
5220.000000, 74.815, -7.7349
5300.000000, 74.447, -6.1771
5380.000000, 74.085, -4.2332
5450.000000, 73.781, -2.2350
5520.000000, 73.491, -0.0019
5600.000000, 73.184, 2.7859
5700.000000, 72.850, 6.5926
5800.000000, 72.576, 10.6503
5900.000000, 72.365, 14.8918
6000.000000, 72.216, 19.2393
6080.000000, 72.144, 22.7450
6150.000000, 72.117, 25.8333
6220.000000, 72.120, 28.9155
6300.000000, 72.158, 32.3869
6400.000000, 72.271, 36.6046
6500.000000, 72.459, 40.6886
6600.000000, 72.720, 44.5272
6700.000000, 73.050, 47.9631
6800.000000, 73.449, 50.9125
6900.000000, 73.905, 53.2392
7000.000000, 74.401, 54.8200
7100.000000, 74.915, 55.5136
7200.000000, 75.414, 55.2093
7300.000000, 75.850, 53.8485
7400.000000, 76.163, 51.5469
7500.000000, 76.305, 48.6129
7620.000000, 76.208, 44.8954
7750.000000, 75.797, 41.5075
7880.000000, 75.159, 39.5466
8000.000000, 74.474, 39.3197
8120.000000, 73.789, 40.5601
8250.000000, 73.123, 43.3035
8380.000000, 72.584, 47.1318
8500.000000, 72.222, 51.3204
8620.000000, 72.000, 55.9493
8750.000000, 71.920, 61.2704
8850.000000, 71.978, 65.4201
9000.000000, 72.272, 71.5233
9120.000000, 72.690, 76.1228
9250.000000, 73.328, 80.5919
9380.000000, 74.167, 84.2353
9500.000000, 75.116, 86.5316
9620.000000, 76.214, 87.3770
9750.000000, 77.511, 86.1280
9880.000000, 78.796, 82.1728
10000.000000, 79.813, 76.0688
10150.000000, 80.636, 66.0448
10300.000000, 80.855, 55.3420
10440.000000, 80.622, 46.6041
10600.000000, 80.135, 39.1473
10750.000000, 79.739, 34.2266
10900.000000, 79.552, 30.1303
11060.000000, 79.604, 25.1848
11200.000000, 79.773, 19.3120
11380.000000, 79.885, 8.8994
11500.000000, 79.705, 0.4807
11720.000000, 78.583, -15.3822
11800.000000, 77.934, -20.4630
12060.000000, 75.338, -32.1384
12200.000000, 73.882, -35.3131
12410.000000, 71.893, -37.0440
12500.000000, 71.147, -37.0164
12650.000000, 70.056, -36.3450
12800.000000, 69.149, -35.1994
13150.000000, 67.686, -31.9078
13200.000000, 67.544, -31.4574
13400.000000, 67.128, -29.9064
13600.000000, 66.946, -28.9430
13800.000000, 66.971, -28.9508
14000.000000, 67.160, -30.1796
14300.000000, 67.626, -34.7797
14500.000000, 67.942, -39.8585
14750.000000, 68.169, -48.1518
15000.000000, 68.075, -57.4871
15250.000000, 67.659, -66.3938
15500.000000, 67.039, -73.8311
15750.000000, 66.392, -79.5016
16000.000000, 65.868, -83.7149
16250.000000, 65.567, -87.1860
16500.000000, 65.496, -90.9312
16750.000000, 65.630, -95.8701
17000.000000, 65.835, -102.6119
17250.000000, 65.884, -111.4579
17500.000000, 65.563, -121.7432
17750.000000, 64.755, -131.9480
18000.000000, 63.520, -140.4410
18250.000000, 62.045, -146.2796
18500.000000, 60.554, -149.6536
18750.000000, 59.209, -151.1032
19000.000000, 58.101, -151.7157
19250.000000, 57.277, -153.1228
19500.000000, 56.702, -157.1777
19750.000000, 56.264, -165.2470
20000.000000, 56.003, -174.3152
