* Measurement data measured by REW V5.31.3
* Source: Input device not selected, no input selected, L, volume: no control
* Format: 256k Log Swept Sine, 1 sweep at -12.0 dBFS with no timing reference
* Dated: Aug 27, 2024 12:35:31 PM
* REW Settings:
*  C-weighting compensation: Off
*  Target level: 75.0 dB
* Note: ; 
* Measurement: N3 (Stock M)
* Smoothing: 1/24 octave
* Frequency Step: 1/48 octave
* Start Frequency: 20.300 Hz
*
* Freq(Hz), SPL(dB), Phase(degrees)
20.299999, 82.538, 199.8396
20.600000, 82.620, 198.8783
20.900000, 82.702, 197.8392
21.200001, 82.768, 196.8695
21.400000, 82.802, 196.2952
21.799999, 82.848, 195.3513
22.000000, 82.864, 194.9743
22.400000, 82.886, 194.3501
22.700001, 82.896, 193.9416
23.000000, 82.898, 193.5598
23.299999, 82.889, 193.2201
23.600000, 82.873, 192.9587
24.000000, 82.851, 192.7647
24.299999, 82.850, 192.6853
24.700001, 82.883, 192.4642
25.000000, 82.929, 192.0514
25.400000, 82.988, 191.0537
25.799999, 83.010, 189.6681
26.200001, 82.982, 188.2427
26.500000, 82.942, 187.3704
26.900000, 82.895, 186.6125
27.200001, 82.881, 186.3018
27.600000, 82.891, 186.0278
28.000000, 82.907, 185.7150
28.500000, 82.899, 185.1998
29.000000, 82.881, 184.6541
29.500000, 82.918, 184.0330
30.000000, 83.015, 183.1363
30.400000, 83.085, 182.2509
30.700001, 83.105, 181.6251
31.100000, 83.084, 181.0358
31.500000, 83.034, 180.8091
32.000000, 82.990, 180.7709
32.500000, 82.994, 180.4389
33.000000, 83.007, 179.5384
33.500000, 82.988, 178.3862
34.000000, 82.945, 177.4653
34.500000, 82.912, 176.9258
35.000000, 82.899, 176.5315
35.500000, 82.883, 176.0097
36.000000, 82.843, 175.3149
36.500000, 82.791, 174.5841
37.000000, 82.752, 173.9447
37.500000, 82.744, 173.4015
38.200001, 82.763, 172.6365
38.700001, 82.760, 172.0233
39.500000, 82.696, 171.1322
40.000000, 82.649, 170.7578
40.599998, 82.632, 170.3859
41.200001, 82.649, 169.8567
41.799999, 82.662, 169.1240
42.500000, 82.647, 168.2652
43.099998, 82.622, 167.6949
43.700001, 82.592, 167.2639
44.400002, 82.547, 166.8254
45.000000, 82.497, 166.4153
45.500000, 82.454, 166.0227
46.200001, 82.404, 165.4319
46.799999, 82.379, 164.9313
47.500000, 82.360, 164.3661
48.200001, 82.324, 163.8532
48.700001, 82.284, 163.5347
49.400002, 82.222, 163.0983
50.000000, 82.168, 162.6877
50.799999, 82.111, 162.1469
51.500000, 82.092, 161.6636
52.200001, 82.078, 161.0662
53.000000, 82.023, 160.3839
53.799999, 81.957, 159.8930
54.500000, 81.935, 159.4510
55.200001, 81.923, 158.8872
56.000000, 81.872, 158.3257
57.000000, 81.770, 157.8537
58.000000, 81.683, 157.0767
59.000000, 81.608, 156.1125
60.000000, 81.562, 155.5279
60.799999, 81.555, 155.0781
61.500000, 81.548, 154.5688
62.200001, 81.530, 154.1594
63.000000, 81.506, 153.9633
64.000000, 81.458, 153.8204
65.000000, 81.367, 153.4146
66.000000, 81.261, 152.7403
67.000000, 81.182, 152.0228
68.000000, 81.153, 151.4477
69.000000, 81.129, 151.0290
70.000000, 81.061, 150.8050
71.000000, 80.993, 150.6381
72.000000, 80.944, 150.3112
73.000000, 80.885, 149.8221
74.000000, 80.835, 149.1682
75.000000, 80.802, 148.5630
76.199997, 80.726, 148.2772
77.500000, 80.599, 147.8580
78.800003, 80.526, 147.0118
80.000000, 80.463, 146.6073
81.199997, 80.381, 146.5292
82.500000, 80.345, 146.1366
83.800003, 80.284, 145.5018
85.000000, 80.199, 145.1738
86.199997, 80.128, 144.9433
87.500000, 80.044, 144.6346
88.500000, 79.984, 144.3409
90.000000, 79.919, 143.8383
91.199997, 79.874, 143.4452
92.500000, 79.818, 143.1317
93.800003, 79.751, 142.7956
95.000000, 79.678, 142.4674
96.199997, 79.601, 142.2489
97.500000, 79.535, 141.9987
98.800003, 79.477, 141.6632
100.000000, 79.414, 141.3311
101.500000, 79.331, 140.9294
103.000000, 79.261, 140.6617
104.400002, 79.200, 140.4632
106.000000, 79.112, 140.1363
107.500000, 79.032, 139.6733
109.000000, 78.968, 139.3421
110.599998, 78.887, 139.1300
112.000000, 78.818, 138.9869
113.800003, 78.736, 138.7289
115.000000, 78.678, 138.5606
117.199997, 78.563, 138.2035
118.000000, 78.525, 138.0258
120.599998, 78.414, 137.5559
122.000000, 78.359, 137.3771
124.099998, 78.274, 137.0667
125.000000, 78.233, 136.9677
126.500000, 78.155, 136.8362
128.000000, 78.084, 136.6614
131.500000, 77.940, 136.1859
132.000000, 77.919, 136.1210
134.000000, 77.833, 135.8814
136.000000, 77.744, 135.6655
138.000000, 77.660, 135.4408
140.000000, 77.582, 135.2332
143.000000, 77.459, 135.0206
145.000000, 77.389, 134.8679
147.500000, 77.299, 134.6121
150.000000, 77.198, 134.3974
152.500000, 77.097, 134.2570
155.000000, 77.016, 134.0732
157.500000, 76.937, 133.8317
160.000000, 76.847, 133.6653
162.500000, 76.757, 133.5462
165.000000, 76.666, 133.3923
167.500000, 76.572, 133.2910
170.000000, 76.483, 133.1862
172.500000, 76.403, 133.0290
175.000000, 76.326, 132.8905
177.500000, 76.248, 132.8047
180.000000, 76.173, 132.7491
182.500000, 76.095, 132.6585
185.000000, 76.016, 132.5591
187.500000, 75.941, 132.4982
190.000000, 75.867, 132.4385
192.500000, 75.794, 132.3782
195.000000, 75.727, 132.3221
197.500000, 75.661, 132.2776
200.000000, 75.595, 132.2219
203.000000, 75.511, 132.1410
206.000000, 75.431, 132.1035
209.000000, 75.356, 132.0761
212.000000, 75.280, 132.0169
214.000000, 75.232, 132.0013
218.000000, 75.139, 131.9606
220.000000, 75.092, 131.9346
224.000000, 74.997, 131.9218
227.000000, 74.924, 131.9119
230.000000, 74.854, 131.8999
233.000000, 74.790, 131.8813
236.000000, 74.726, 131.8927
240.000000, 74.637, 131.9293
243.000000, 74.573, 131.9779
247.000000, 74.493, 132.0351
250.000000, 74.436, 132.0085
254.000000, 74.353, 131.9452
258.000000, 74.270, 131.9850
262.000000, 74.196, 132.0632
265.000000, 74.141, 132.0800
269.000000, 74.065, 132.0899
272.000000, 74.011, 132.1346
276.000000, 73.940, 132.1970
280.000000, 73.876, 132.2531
285.000000, 73.796, 132.3452
290.000000, 73.714, 132.4470
295.000000, 73.635, 132.5212
300.000000, 73.561, 132.6160
304.000000, 73.503, 132.6432
307.000000, 73.461, 132.6795
311.000000, 73.406, 132.7634
315.000000, 73.351, 132.8508
320.000000, 73.283, 132.9221
325.000000, 73.217, 133.0363
330.000000, 73.153, 133.1601
335.000000, 73.096, 133.2679
340.000000, 73.044, 133.3701
345.000000, 72.989, 133.4628
350.000000, 72.929, 133.5467
355.000000, 72.871, 133.6606
360.000000, 72.813, 133.7806
365.000000, 72.759, 133.9058
370.000000, 72.711, 134.0169
375.000000, 72.668, 134.1280
382.000000, 72.599, 134.2944
387.000000, 72.551, 134.3911
395.000000, 72.479, 134.5538
400.000000, 72.437, 134.6830
406.000000, 72.388, 134.8247
412.000000, 72.343, 134.9648
418.000000, 72.300, 135.0965
425.000000, 72.249, 135.2438
431.000000, 72.208, 135.3702
437.000000, 72.175, 135.5126
444.000000, 72.132, 135.6338
450.000000, 72.092, 135.7231
455.000000, 72.062, 135.8513
462.000000, 72.024, 136.0540
468.000000, 71.994, 136.2112
475.000000, 71.952, 136.3651
482.000000, 71.915, 136.4989
487.000000, 71.897, 136.5927
494.000000, 71.866, 136.7451
500.000000, 71.832, 136.8729
508.000000, 71.789, 137.0076
515.000000, 71.761, 137.1640
522.000000, 71.734, 137.3326
530.000000, 71.703, 137.5145
538.000000, 71.671, 137.6637
545.000000, 71.645, 137.8366
552.000000, 71.624, 137.9969
560.000000, 71.602, 138.1587
570.000000, 71.581, 138.3424
580.000000, 71.553, 138.5446
590.000000, 71.531, 138.7562
600.000000, 71.507, 138.9942
608.000000, 71.491, 139.1606
615.000000, 71.477, 139.2933
622.000000, 71.458, 139.4435
630.000000, 71.439, 139.6078
640.000000, 71.424, 139.8096
650.000000, 71.405, 140.0322
660.000000, 71.388, 140.2357
670.000000, 71.382, 140.4458
680.000000, 71.372, 140.6893
690.000000, 71.360, 140.9545
700.000000, 71.355, 141.2241
710.000000, 71.356, 141.4743
720.000000, 71.356, 141.6888
730.000000, 71.359, 141.9024
740.000000, 71.368, 142.1493
750.000000, 71.380, 142.4333
762.000000, 71.397, 142.7192
775.000000, 71.417, 143.0175
788.000000, 71.432, 143.4146
800.000000, 71.448, 143.7667
812.000000, 71.474, 144.0664
825.000000, 71.513, 144.4045
838.000000, 71.559, 144.7040
850.000000, 71.601, 144.9569
862.000000, 71.649, 145.2403
875.000000, 71.704, 145.5313
885.000000, 71.745, 145.7214
900.000000, 71.811, 146.0025
912.000000, 71.874, 146.2647
925.000000, 71.946, 146.5167
938.000000, 72.026, 146.7511
950.000000, 72.106, 146.9361
962.000000, 72.184, 147.0580
975.000000, 72.266, 147.1790
988.000000, 72.344, 147.2897
1000.000000, 72.414, 147.3852
1015.000000, 72.516, 147.4419
1030.000000, 72.624, 147.5461
1044.000000, 72.731, 147.6478
1060.000000, 72.863, 147.6733
1075.000000, 73.003, 147.6650
1090.000000, 73.143, 147.5600
1106.000000, 73.288, 147.3097
1120.000000, 73.413, 147.0407
1138.000000, 73.570, 146.6852
1150.000000, 73.669, 146.3896
1172.000000, 73.846, 145.7531
1180.000000, 73.908, 145.5058
1206.000000, 74.103, 144.6397
1220.000000, 74.203, 144.1363
1241.000000, 74.350, 143.3268
1250.000000, 74.408, 142.9624
1265.000000, 74.500, 142.3262
1280.000000, 74.587, 141.6607
1315.000000, 74.777, 139.9667
1320.000000, 74.802, 139.7224
1340.000000, 74.893, 138.7378
1360.000000, 74.973, 137.7272
1380.000000, 75.039, 136.6708
1400.000000, 75.079, 135.5661
1430.000000, 75.090, 133.9130
1450.000000, 75.067, 132.8755
1475.000000, 74.996, 131.8134
1500.000000, 74.893, 131.2134
1525.000000, 74.789, 131.2232
1550.000000, 74.742, 131.7803
1575.000000, 74.785, 132.5602
1600.000000, 74.916, 133.2213
1625.000000, 75.105, 133.5402
1650.000000, 75.320, 133.5029
1675.000000, 75.539, 133.1664
1700.000000, 75.749, 132.6098
1725.000000, 75.942, 131.9157
1750.000000, 76.121, 131.0938
1775.000000, 76.291, 130.1763
1800.000000, 76.451, 129.2355
1825.000000, 76.603, 128.2771
1850.000000, 76.746, 127.2650
1875.000000, 76.878, 126.2069
1900.000000, 77.008, 125.1371
1925.000000, 77.136, 124.0599
1950.000000, 77.258, 122.9587
1975.000000, 77.371, 121.8244
2000.000000, 77.479, 120.6608
2030.000000, 77.608, 119.2695
2060.000000, 77.727, 117.8743
2090.000000, 77.839, 116.4263
2120.000000, 77.945, 114.9408
2140.000000, 78.012, 113.9519
2180.000000, 78.138, 111.9062
2200.000000, 78.196, 110.8684
2240.000000, 78.302, 108.7732
2270.000000, 78.372, 107.1799
2300.000000, 78.432, 105.5660
2330.000000, 78.481, 103.9390
2360.000000, 78.521, 102.3174
2400.000000, 78.562, 100.1581
2430.000000, 78.580, 98.5363
2470.000000, 78.587, 96.3931
2500.000000, 78.581, 94.7990
2540.000000, 78.557, 92.7080
2580.000000, 78.517, 90.6841
2620.000000, 78.459, 88.7292
2650.000000, 78.404, 87.2908
2690.000000, 78.320, 85.4363
2720.000000, 78.248, 84.1237
2760.000000, 78.139, 82.4773
2800.000000, 78.016, 80.9416
2850.000000, 77.849, 79.2086
2900.000000, 77.672, 77.7051
2950.000000, 77.490, 76.4673
3000.000000, 77.315, 75.4957
3040.000000, 77.182, 74.9502
3070.000000, 77.090, 74.6496
3110.000000, 76.982, 74.3646
3150.000000, 76.893, 74.1927
3200.000000, 76.816, 74.1246
3250.000000, 76.781, 74.1558
3300.000000, 76.786, 74.2119
3350.000000, 76.831, 74.2208
3400.000000, 76.916, 74.1369
3450.000000, 77.035, 73.9222
3500.000000, 77.180, 73.5182
3550.000000, 77.345, 72.9139
3600.000000, 77.530, 72.1047
3650.000000, 77.727, 71.0631
3700.000000, 77.933, 69.7260
3750.000000, 78.137, 68.0768
3820.000000, 78.397, 65.2268
3870.000000, 78.546, 62.7790
3950.000000, 78.687, 58.2027
4000.000000, 78.685, 55.0538
4060.000000, 78.566, 51.2408
4120.000000, 78.314, 47.6480
4180.000000, 77.944, 44.6628
4250.000000, 77.430, 42.3586
4310.000000, 76.989, 41.5107
4370.000000, 76.622, 41.5608
4440.000000, 76.338, 42.2926
4500.000000, 76.224, 43.0312
4550.000000, 76.212, 43.4629
4620.000000, 76.283, 43.5710
4680.000000, 76.383, 43.1021
4750.000000, 76.500, 41.9216
4820.000000, 76.580, 40.1961
4870.000000, 76.602, 38.6906
4940.000000, 76.570, 36.3612
5000.000000, 76.481, 34.3170
5080.000000, 76.277, 31.7061
5150.000000, 76.032, 29.6251
5220.000000, 75.735, 27.8359
5300.000000, 75.357, 26.2165
5380.000000, 74.952, 25.0703
5450.000000, 74.591, 24.4347
5520.000000, 74.232, 24.1082
5600.000000, 73.833, 24.1141
5700.000000, 73.361, 24.6295
5800.000000, 72.933, 25.5786
5900.000000, 72.550, 26.9171
6000.000000, 72.218, 28.5685
6080.000000, 71.991, 30.0302
6150.000000, 71.818, 31.4136
6220.000000, 71.677, 32.8877
6300.000000, 71.551, 34.7117
6400.000000, 71.443, 37.1608
6500.000000, 71.399, 39.6212
6600.000000, 71.421, 42.0769
6700.000000, 71.511, 44.4376
6800.000000, 71.664, 46.6585
6900.000000, 71.877, 48.7146
7000.000000, 72.155, 50.5140
7100.000000, 72.492, 51.9790
7200.000000, 72.890, 53.0263
7300.000000, 73.341, 53.4192
7400.000000, 73.816, 53.0689
7500.000000, 74.287, 51.8937
7620.000000, 74.796, 49.3598
7750.000000, 75.195, 45.3172
7880.000000, 75.347, 40.3194
8000.000000, 75.233, 35.5890
8120.000000, 74.885, 31.5024
8250.000000, 74.315, 28.3237
8380.000000, 73.652, 26.7332
8500.000000, 73.030, 26.6108
8620.000000, 72.457, 27.6449
8750.000000, 71.937, 29.8365
8850.000000, 71.624, 32.0791
9000.000000, 71.298, 36.0673
9120.000000, 71.183, 39.6766
9250.000000, 71.203, 43.8061
9380.000000, 71.375, 47.9918
9500.000000, 71.674, 51.7975
9620.000000, 72.108, 55.4324
9750.000000, 72.745, 58.9767
9880.000000, 73.559, 61.9039
10000.000000, 74.466, 63.8508
10150.000000, 75.808, 64.8193
10300.000000, 77.339, 63.4438
10440.000000, 78.823, 59.3446
10600.000000, 80.360, 50.9545
10750.000000, 81.394, 40.0919
10900.000000, 81.879, 27.9520
11060.000000, 81.850, 15.7366
11200.000000, 81.561, 6.7197
11380.000000, 81.130, -2.7821
11500.000000, 80.907, -8.5300
11720.000000, 80.610, -19.7833
11800.000000, 80.482, -24.4262
12060.000000, 79.628, -41.1893
12200.000000, 78.767, -50.1430
12410.000000, 76.992, -61.3009
12500.000000, 76.121, -64.8806
12650.000000, 74.626, -69.1551
12800.000000, 73.169, -71.5038
13150.000000, 70.248, -71.8054
13200.000000, 69.894, -71.4705
13400.000000, 68.647, -69.5428
13600.000000, 67.664, -67.0675
13800.000000, 66.922, -64.3243
14000.000000, 66.404, -61.5763
14300.000000, 66.016, -57.9133
14500.000000, 65.992, -55.9788
14750.000000, 66.195, -54.6717
15000.000000, 66.611, -55.0612
15250.000000, 67.144, -57.5844
15500.000000, 67.626, -62.4415
15750.000000, 67.848, -69.2252
16000.000000, 67.708, -76.5693
16250.000000, 67.223, -82.9608
16500.000000, 66.518, -87.4281
16750.000000, 65.781, -89.6835
17000.000000, 65.135, -90.2234
17250.000000, 64.654, -89.8274
17500.000000, 64.374, -89.1729
17750.000000, 64.288, -89.2002
18000.000000, 64.300, -90.9430
18250.000000, 64.219, -95.1754
18500.000000, 63.789, -101.6044
18750.000000, 62.780, -108.7530
19000.000000, 61.147, -114.5992
19250.000000, 59.006, -117.5659
19500.000000, 56.565, -116.7323
19750.000000, 54.143, -111.9022
20000.000000, 52.526, -106.9452
