* Measurement data measured by REW V5.31.3
* Source: Input device not selected, no input selected, L, volume: no control
* Format: 256k Log Swept Sine, 1 sweep at -12.0 dBFS with no timing reference
* Dated: Sep 7, 2024 3:42:34 PM
* REW Settings:
*  C-weighting compensation: Off
*  Target level: 75.0 dB
* Note: ; 
* Measurement: N3 (Velvet M)
* Smoothing: 1/24 octave
* Frequency Step: 1/48 octave
* Start Frequency: 20.300 Hz
*
* Freq(Hz), SPL(dB), Phase(degrees)
20.299999, 83.445, -158.7547
20.600000, 83.458, -159.3192
20.900000, 83.469, -159.9325
21.200001, 83.479, -160.5387
21.400000, 83.486, -160.9317
21.799999, 83.504, -161.6832
22.000000, 83.515, -162.0415
22.400000, 83.539, -162.7314
22.700001, 83.558, -163.2361
23.000000, 83.574, -163.7395
23.299999, 83.586, -164.2461
23.600000, 83.591, -164.7560
24.000000, 83.591, -165.4345
24.299999, 83.587, -165.9366
24.700001, 83.581, -166.5917
25.000000, 83.578, -167.0722
25.400000, 83.578, -167.6999
25.799999, 83.580, -168.3111
26.200001, 83.581, -168.9000
26.500000, 83.580, -169.3244
26.900000, 83.579, -169.8700
27.200001, 83.577, -170.2708
27.600000, 83.574, -170.8065
28.000000, 83.570, -171.3520
28.500000, 83.562, -172.0401
29.000000, 83.550, -172.7076
29.500000, 83.536, -173.3322
30.000000, 83.522, -173.9209
30.400000, 83.511, -174.3846
30.700001, 83.503, -174.7372
31.100000, 83.492, -175.2180
31.500000, 83.481, -175.7060
32.000000, 83.465, -176.3044
32.500000, 83.448, -176.8591
33.000000, 83.430, -177.3546
33.500000, 83.415, -177.8103
34.000000, 83.399, -178.2686
34.500000, 83.381, -178.7601
35.000000, 83.357, -179.2791
35.500000, 83.331, -179.7955
36.000000, 83.305, 179.7123
36.500000, 83.284, 179.2428
37.000000, 83.263, 178.7849
37.500000, 83.240, 178.3339
38.200001, 83.203, 177.7142
38.700001, 83.175, 177.2758
39.500000, 83.131, 176.5912
40.000000, 83.105, 176.1972
40.599998, 83.079, 175.7623
41.200001, 83.055, 175.3248
41.799999, 83.028, 174.8458
42.500000, 82.982, 174.2716
43.099998, 82.936, 173.8365
43.700001, 82.895, 173.4662
44.400002, 82.857, 173.0530
45.000000, 82.826, 172.6736
45.500000, 82.798, 172.3455
46.200001, 82.756, 171.8881
46.799999, 82.722, 171.4958
47.500000, 82.683, 171.0372
48.200001, 82.640, 170.6102
48.700001, 82.608, 170.3390
49.400002, 82.562, 169.9894
50.000000, 82.524, 169.6884
50.799999, 82.470, 169.2651
51.500000, 82.422, 168.8871
52.200001, 82.374, 168.5213
53.000000, 82.321, 168.1284
53.799999, 82.268, 167.7565
54.500000, 82.221, 167.4405
55.200001, 82.176, 167.1294
56.000000, 82.126, 166.7903
57.000000, 82.064, 166.4243
58.000000, 82.002, 166.0672
59.000000, 81.936, 165.6384
60.000000, 81.865, 165.2341
60.799999, 81.812, 164.9695
61.500000, 81.767, 164.7499
62.200001, 81.720, 164.5284
63.000000, 81.660, 164.2877
64.000000, 81.587, 163.9946
65.000000, 81.525, 163.6482
66.000000, 81.469, 163.3047
67.000000, 81.410, 163.0345
68.000000, 81.347, 162.7612
69.000000, 81.285, 162.5004
70.000000, 81.230, 162.2975
71.000000, 81.161, 162.1125
72.000000, 81.081, 161.9349
73.000000, 81.019, 161.7082
74.000000, 80.963, 161.4430
75.000000, 80.903, 161.2131
76.199997, 80.827, 160.9565
77.500000, 80.750, 160.7452
78.800003, 80.677, 160.5899
80.000000, 80.600, 160.4479
81.199997, 80.514, 160.2733
82.500000, 80.438, 160.0624
83.800003, 80.377, 159.8301
85.000000, 80.303, 159.6605
86.199997, 80.221, 159.5366
87.500000, 80.143, 159.4326
88.500000, 80.086, 159.3370
90.000000, 79.997, 159.1905
91.199997, 79.926, 159.0876
92.500000, 79.849, 158.9677
93.800003, 79.774, 158.8569
95.000000, 79.705, 158.7774
96.199997, 79.637, 158.6995
97.500000, 79.568, 158.6207
98.800003, 79.501, 158.5718
100.000000, 79.438, 158.5433
101.500000, 79.358, 158.4845
103.000000, 79.278, 158.4210
104.400002, 79.202, 158.3824
106.000000, 79.115, 158.3444
107.500000, 79.038, 158.3225
109.000000, 78.963, 158.3182
110.599998, 78.882, 158.3374
112.000000, 78.814, 158.3625
113.800003, 78.720, 158.3846
115.000000, 78.656, 158.3900
117.199997, 78.547, 158.4128
118.000000, 78.510, 158.4291
120.599998, 78.387, 158.5185
122.000000, 78.318, 158.5881
124.099998, 78.216, 158.6629
125.000000, 78.175, 158.6947
126.500000, 78.107, 158.7639
128.000000, 78.037, 158.8295
131.500000, 77.879, 158.9926
132.000000, 77.858, 159.0211
134.000000, 77.770, 159.1397
136.000000, 77.683, 159.2580
138.000000, 77.595, 159.3977
140.000000, 77.507, 159.5542
143.000000, 77.384, 159.7744
145.000000, 77.300, 159.9276
147.500000, 77.196, 160.1591
150.000000, 77.094, 160.3964
152.500000, 76.996, 160.6017
155.000000, 76.902, 160.8364
157.500000, 76.805, 161.0843
160.000000, 76.708, 161.3477
162.500000, 76.616, 161.6428
165.000000, 76.525, 161.9514
167.500000, 76.432, 162.2520
170.000000, 76.338, 162.5790
172.500000, 76.243, 162.9146
175.000000, 76.152, 163.2661
177.500000, 76.060, 163.6061
180.000000, 75.970, 163.9724
182.500000, 75.883, 164.3853
185.000000, 75.801, 164.8143
187.500000, 75.723, 165.2615
190.000000, 75.652, 165.7176
192.500000, 75.592, 166.2240
195.000000, 75.541, 166.7650
197.500000, 75.496, 167.2538
200.000000, 75.453, 167.6248
203.000000, 75.408, 168.0012
206.000000, 75.358, 168.3336
209.000000, 75.296, 168.6451
212.000000, 75.225, 168.9268
214.000000, 75.175, 169.1325
218.000000, 75.071, 169.6095
220.000000, 75.018, 169.8887
224.000000, 74.911, 170.5205
227.000000, 74.834, 171.0124
230.000000, 74.768, 171.5322
233.000000, 74.715, 172.1155
236.000000, 74.676, 172.7128
240.000000, 74.639, 173.3557
243.000000, 74.615, 173.7170
247.000000, 74.569, 174.0844
250.000000, 74.522, 174.3233
254.000000, 74.443, 174.6670
258.000000, 74.360, 175.0534
262.000000, 74.281, 175.4630
265.000000, 74.218, 175.8184
269.000000, 74.134, 176.3399
272.000000, 74.072, 176.7438
276.000000, 73.993, 177.3162
280.000000, 73.914, 177.8696
285.000000, 73.821, 178.5695
290.000000, 73.735, 179.3418
295.000000, 73.654, -179.9364
300.000000, 73.574, -179.2031
304.000000, 73.510, -178.5713
307.000000, 73.463, -178.0912
311.000000, 73.404, -177.4556
315.000000, 73.354, -176.8143
320.000000, 73.300, -176.0285
325.000000, 73.243, -175.3058
330.000000, 73.184, -174.6452
335.000000, 73.129, -173.9510
340.000000, 73.073, -173.2355
345.000000, 73.016, -172.5386
350.000000, 72.957, -171.8430
355.000000, 72.898, -171.1309
360.000000, 72.842, -170.4252
365.000000, 72.788, -169.7105
370.000000, 72.736, -168.9696
375.000000, 72.685, -168.2376
382.000000, 72.618, -167.2631
387.000000, 72.573, -166.5647
395.000000, 72.496, -165.4256
400.000000, 72.449, -164.7146
406.000000, 72.396, -163.8870
412.000000, 72.352, -163.0403
418.000000, 72.309, -162.1873
425.000000, 72.258, -161.2018
431.000000, 72.214, -160.3532
437.000000, 72.174, -159.4896
444.000000, 72.130, -158.5235
450.000000, 72.095, -157.7377
455.000000, 72.066, -157.0758
462.000000, 72.023, -156.0964
468.000000, 71.989, -155.2732
475.000000, 71.952, -154.3285
482.000000, 71.918, -153.3840
487.000000, 71.898, -152.7199
494.000000, 71.869, -151.7767
500.000000, 71.839, -150.9702
508.000000, 71.803, -149.8953
515.000000, 71.777, -148.9704
522.000000, 71.749, -148.0560
530.000000, 71.716, -147.0275
538.000000, 71.684, -145.9986
545.000000, 71.662, -145.0588
552.000000, 71.645, -144.1236
560.000000, 71.625, -143.1044
570.000000, 71.601, -141.8276
580.000000, 71.574, -140.5882
590.000000, 71.553, -139.3577
600.000000, 71.529, -138.0890
608.000000, 71.509, -137.0931
615.000000, 71.498, -136.2247
622.000000, 71.488, -135.3456
630.000000, 71.475, -134.3361
640.000000, 71.464, -133.1170
650.000000, 71.458, -131.8940
660.000000, 71.447, -130.6411
670.000000, 71.441, -129.4021
680.000000, 71.439, -128.1721
690.000000, 71.436, -126.9739
700.000000, 71.434, -125.7796
710.000000, 71.438, -124.5905
720.000000, 71.442, -123.3816
730.000000, 71.443, -122.1642
740.000000, 71.447, -120.9420
750.000000, 71.455, -119.7580
762.000000, 71.470, -118.3812
775.000000, 71.489, -116.8659
788.000000, 71.513, -115.3023
800.000000, 71.538, -113.9461
812.000000, 71.565, -112.5604
825.000000, 71.602, -111.0375
838.000000, 71.645, -109.5331
850.000000, 71.686, -108.1789
862.000000, 71.733, -106.8414
875.000000, 71.788, -105.3838
885.000000, 71.831, -104.2912
900.000000, 71.897, -102.6617
912.000000, 71.959, -101.4120
925.000000, 72.028, -100.0965
938.000000, 72.093, -98.8020
950.000000, 72.158, -97.6259
962.000000, 72.223, -96.4707
975.000000, 72.293, -95.2110
988.000000, 72.369, -93.9449
1000.000000, 72.443, -92.7644
1015.000000, 72.543, -91.2752
1030.000000, 72.664, -89.8785
1044.000000, 72.785, -88.6737
1060.000000, 72.922, -87.4039
1075.000000, 73.046, -86.3057
1090.000000, 73.170, -85.2495
1106.000000, 73.298, -84.1788
1120.000000, 73.410, -83.3263
1138.000000, 73.552, -82.3047
1150.000000, 73.645, -81.6472
1172.000000, 73.810, -80.4862
1180.000000, 73.866, -80.0928
1206.000000, 74.036, -78.9009
1220.000000, 74.127, -78.3052
1241.000000, 74.258, -77.5112
1250.000000, 74.309, -77.1890
1265.000000, 74.385, -76.6778
1280.000000, 74.454, -76.2005
1315.000000, 74.598, -75.2051
1320.000000, 74.614, -75.0746
1340.000000, 74.664, -74.5842
1360.000000, 74.691, -74.1195
1380.000000, 74.686, -73.6218
1400.000000, 74.647, -73.0205
1430.000000, 74.542, -71.6536
1450.000000, 74.460, -70.2854
1475.000000, 74.398, -68.0192
1500.000000, 74.427, -65.4104
1525.000000, 74.554, -62.8865
1550.000000, 74.747, -60.7188
1575.000000, 74.964, -58.9756
1600.000000, 75.179, -57.5765
1625.000000, 75.383, -56.4218
1650.000000, 75.574, -55.4019
1675.000000, 75.749, -54.5052
1700.000000, 75.909, -53.6739
1725.000000, 76.057, -52.9076
1750.000000, 76.198, -52.1710
1775.000000, 76.331, -51.4686
1800.000000, 76.454, -50.7751
1825.000000, 76.573, -50.1066
1850.000000, 76.688, -49.4696
1875.000000, 76.796, -48.8472
1900.000000, 76.897, -48.2415
1925.000000, 76.990, -47.6561
1950.000000, 77.077, -47.0679
1975.000000, 77.159, -46.4576
2000.000000, 77.236, -45.8117
2030.000000, 77.331, -44.9682
2060.000000, 77.434, -44.0128
2090.000000, 77.562, -42.9825
2120.000000, 77.732, -42.0283
2140.000000, 77.863, -41.5427
2180.000000, 78.130, -41.0701
2200.000000, 78.250, -41.0594
2240.000000, 78.438, -41.2702
2270.000000, 78.537, -41.4879
2300.000000, 78.607, -41.6865
2330.000000, 78.657, -41.8568
2360.000000, 78.692, -41.9906
2400.000000, 78.716, -42.1223
2430.000000, 78.721, -42.1873
2470.000000, 78.713, -42.2167
2500.000000, 78.698, -42.2072
2540.000000, 78.664, -42.1579
2580.000000, 78.611, -42.0564
2620.000000, 78.544, -41.8837
2650.000000, 78.485, -41.6891
2690.000000, 78.395, -41.3669
2720.000000, 78.320, -41.0760
2760.000000, 78.211, -40.5994
2800.000000, 78.090, -40.0023
2850.000000, 77.928, -39.0794
2900.000000, 77.762, -37.9622
2950.000000, 77.597, -36.6162
3000.000000, 77.439, -35.0056
3040.000000, 77.322, -33.5657
3070.000000, 77.245, -32.3913
3110.000000, 77.160, -30.7169
3150.000000, 77.096, -28.9536
3200.000000, 77.051, -26.6730
3250.000000, 77.048, -24.3572
3300.000000, 77.086, -22.0722
3350.000000, 77.166, -19.8675
3400.000000, 77.279, -17.8220
3450.000000, 77.420, -15.9484
3500.000000, 77.583, -14.2607
3550.000000, 77.765, -12.7485
3600.000000, 77.972, -11.4442
3650.000000, 78.202, -10.4505
3700.000000, 78.446, -9.8364
3750.000000, 78.685, -9.6702
3820.000000, 78.973, -10.2040
3870.000000, 79.119, -11.0743
3950.000000, 79.193, -13.0558
4000.000000, 79.119, -14.4361
4060.000000, 78.910, -15.9209
4120.000000, 78.580, -16.8363
4180.000000, 78.168, -16.8900
4250.000000, 77.669, -15.6903
4310.000000, 77.299, -13.6735
4370.000000, 77.031, -11.0526
4440.000000, 76.871, -7.7156
4500.000000, 76.853, -4.9864
4550.000000, 76.904, -2.9855
4620.000000, 77.039, -0.7614
4680.000000, 77.176, 0.5847
4750.000000, 77.324, 1.5614
4820.000000, 77.433, 2.0056
4870.000000, 77.474, 2.0812
4940.000000, 77.471, 1.9816
5000.000000, 77.407, 1.8142
5080.000000, 77.238, 1.6584
5150.000000, 77.019, 1.7553
5220.000000, 76.750, 2.1996
5300.000000, 76.409, 3.2080
5380.000000, 76.062, 4.7613
5450.000000, 75.771, 6.4943
5520.000000, 75.500, 8.5068
5600.000000, 75.220, 11.0636
5700.000000, 74.921, 14.5585
5800.000000, 74.678, 18.3309
5900.000000, 74.491, 22.3601
6000.000000, 74.367, 26.5642
6080.000000, 74.317, 29.9773
6150.000000, 74.310, 32.9952
6220.000000, 74.337, 36.0256
6300.000000, 74.410, 39.4658
6400.000000, 74.569, 43.7054
6500.000000, 74.799, 47.8300
6600.000000, 75.112, 51.7746
6700.000000, 75.516, 55.4222
6800.000000, 76.009, 58.6460
6900.000000, 76.589, 61.2791
7000.000000, 77.251, 63.1417
7100.000000, 77.975, 64.0142
7200.000000, 78.728, 63.6225
7300.000000, 79.451, 61.7901
7400.000000, 80.062, 58.4984
7500.000000, 80.475, 54.0231
7620.000000, 80.631, 47.9090
7750.000000, 80.367, 41.6479
7880.000000, 79.765, 37.0043
8000.000000, 79.067, 34.6596
8120.000000, 78.365, 34.0898
8250.000000, 77.700, 35.0310
8380.000000, 77.195, 37.0474
8500.000000, 76.889, 39.4233
8620.000000, 76.744, 41.9299
8750.000000, 76.762, 44.4143
8850.000000, 76.887, 45.9130
9000.000000, 77.216, 47.0873
9120.000000, 77.549, 46.7919
9250.000000, 77.899, 45.0491
9380.000000, 78.143, 41.9368
9500.000000, 78.198, 38.2004
9620.000000, 78.050, 34.2190
9750.000000, 77.673, 30.3065
9880.000000, 77.133, 27.3678
10000.000000, 76.565, 25.7590
10150.000000, 75.865, 25.2112
10300.000000, 75.276, 25.9681
10440.000000, 74.881, 27.4228
10600.000000, 74.639, 29.4794
10750.000000, 74.629, 31.2907
10900.000000, 74.826, 32.5264
11060.000000, 75.250, 32.6705
11200.000000, 75.753, 31.2871
11380.000000, 76.447, 26.7441
11500.000000, 76.823, 21.8450
11720.000000, 77.011, 9.8473
11800.000000, 76.860, 5.0647
12060.000000, 75.609, -8.8195
12200.000000, 74.623, -14.0841
12410.000000, 73.060, -18.7011
12500.000000, 72.427, -19.6783
12650.000000, 71.480, -20.3204
12800.000000, 70.691, -20.1001
13150.000000, 69.476, -18.0347
13200.000000, 69.372, -17.6883
13400.000000, 69.120, -16.4267
13600.000000, 69.118, -15.6782
13800.000000, 69.352, -15.8741
14000.000000, 69.777, -17.2803
14300.000000, 70.660, -22.2970
14500.000000, 71.299, -27.9469
14750.000000, 71.963, -37.5435
15000.000000, 72.303, -48.9840
15250.000000, 72.256, -60.6490
15500.000000, 71.941, -71.3408
15750.000000, 71.539, -80.7009
16000.000000, 71.211, -89.2294
16250.000000, 70.996, -97.9083
16500.000000, 70.799, -107.6253
16750.000000, 70.426, -118.5477
17000.000000, 69.695, -129.8742
17250.000000, 68.556, -140.2144
17500.000000, 67.130, -148.3729
17750.000000, 65.612, -153.8880
18000.000000, 64.159, -157.2863
18250.000000, 62.873, -159.5001
18500.000000, 61.770, -161.2100
18750.000000, 60.804, -163.2841
19000.000000, 59.857, -166.5566
19250.000000, 58.790, -171.3621
19500.000000, 57.479, -177.3878
19750.000000, 56.023, 176.4713
20000.000000, 55.110, 172.0369
