* Measurement data measured by REW V5.31.3
* Source: Input device not selected, no input selected, L, volume: no control
* Format: 256k Log Swept Sine, 1 sweep at -12.0 dBFS with no timing reference
* Dated: Sep 23, 2024 11:11:55 PM
* REW Settings:
*  C-weighting compensation: Off
*  Target level: 75.0 dB
* Note: ; 
* Measurement: N5005 (Reference, Stock M) L
* Smoothing: 1/24 octave
* Frequency Step: 1/48 octave
* Start Frequency: 20.300 Hz
*
* Freq(Hz), SPL(dB), Phase(degrees)
20.299999, 84.684, -171.9503
20.600000, 84.711, -174.0085
20.900000, 84.691, -175.5626
21.200001, 84.620, -176.1606
21.400000, 84.553, -176.0112
21.799999, 84.413, -174.7319
22.000000, 84.350, -173.8646
22.400000, 84.249, -172.3977
22.700001, 84.178, -171.9578
23.000000, 84.099, -172.2267
23.299999, 84.013, -173.0883
23.600000, 83.932, -174.2794
24.000000, 83.870, -175.8664
24.299999, 83.882, -176.8126
24.700001, 83.981, -177.7613
25.000000, 84.100, -178.4648
25.400000, 84.263, -179.8033
25.799999, 84.370, 178.1660
26.200001, 84.388, 175.6145
26.500000, 84.348, 173.7068
26.900000, 84.264, 171.7831
27.200001, 84.219, 171.1354
27.600000, 84.232, 171.4158
28.000000, 84.336, 172.5217
28.500000, 84.487, 173.8573
29.000000, 84.494, 174.2605
29.500000, 84.317, 173.7368
30.000000, 84.125, 172.6244
30.400000, 84.109, 171.3740
30.700001, 84.197, 170.2182
31.100000, 84.381, 168.5066
31.500000, 84.526, 166.9123
32.000000, 84.524, 165.6319
32.500000, 84.327, 165.2869
33.000000, 84.067, 165.1749
33.500000, 83.869, 164.2548
34.000000, 83.789, 162.3373
34.500000, 83.834, 160.3547
35.000000, 83.971, 159.3593
35.500000, 84.100, 159.5982
36.000000, 84.104, 160.6764
36.500000, 83.941, 162.0506
37.000000, 83.703, 163.0700
37.500000, 83.559, 162.9264
38.200001, 83.660, 160.2712
38.700001, 83.847, 157.7878
39.500000, 84.078, 155.7683
40.000000, 84.155, 155.8649
40.599998, 84.220, 155.9016
41.200001, 84.235, 154.5858
41.799999, 84.126, 152.1962
42.500000, 83.785, 150.1959
43.099998, 83.397, 150.7648
43.700001, 83.141, 153.2459
44.400002, 83.201, 156.0483
45.000000, 83.421, 156.6376
45.500000, 83.524, 155.9686
46.200001, 83.349, 154.4879
46.799999, 82.966, 153.4640
47.500000, 82.643, 152.2625
48.200001, 82.761, 150.3706
48.700001, 83.001, 149.0796
49.400002, 83.244, 148.3659
50.000000, 83.213, 148.4893
50.799999, 82.798, 147.9711
51.500000, 82.336, 146.6969
52.200001, 82.243, 145.6899
53.000000, 82.517, 144.9598
53.799999, 82.565, 144.7984
54.500000, 82.425, 145.2960
55.200001, 82.422, 145.0333
56.000000, 82.489, 143.2729
57.000000, 82.292, 141.8852
58.000000, 81.883, 141.9690
59.000000, 81.577, 141.6041
60.000000, 81.584, 140.5439
60.799999, 81.697, 139.3171
61.500000, 81.735, 138.2669
62.200001, 81.636, 137.7116
63.000000, 81.377, 138.1492
64.000000, 81.178, 139.2118
65.000000, 81.267, 138.1613
66.000000, 81.181, 136.7389
67.000000, 80.925, 137.2772
68.000000, 80.708, 136.7879
69.000000, 80.546, 135.5134
70.000000, 80.609, 134.5096
71.000000, 80.625, 133.8192
72.000000, 80.589, 133.1792
73.000000, 80.318, 132.7451
74.000000, 80.111, 133.8676
75.000000, 80.042, 132.6612
76.199997, 79.839, 130.7218
77.500000, 79.985, 129.3005
78.800003, 80.136, 131.0207
80.000000, 80.095, 130.3261
81.199997, 79.715, 131.1688
82.500000, 79.487, 130.8009
83.800003, 79.320, 131.2050
85.000000, 79.439, 129.1967
86.199997, 79.075, 128.6567
87.500000, 79.032, 129.0914
88.500000, 78.873, 128.6214
90.000000, 78.821, 129.4463
91.199997, 78.793, 127.3723
92.500000, 78.537, 127.9020
93.800003, 78.581, 127.2750
95.000000, 78.269, 126.3366
96.199997, 78.114, 128.3220
97.500000, 78.244, 127.7515
98.800003, 77.969, 127.3456
100.000000, 77.868, 128.7634
101.500000, 77.939, 126.0426
103.000000, 77.476, 125.5354
104.400002, 77.458, 127.2412
106.000000, 77.357, 125.1780
107.500000, 76.807, 125.8567
109.000000, 76.814, 127.6070
110.599998, 76.876, 125.3890
112.000000, 76.495, 125.3190
113.800003, 76.319, 128.5135
115.000000, 76.444, 127.6638
117.199997, 76.056, 124.2872
118.000000, 75.807, 125.0822
120.599998, 75.914, 128.2394
122.000000, 76.048, 126.0406
124.099998, 75.608, 123.8591
125.000000, 75.337, 124.8366
126.500000, 75.138, 128.1956
128.000000, 75.283, 130.4937
131.500000, 75.393, 127.1151
132.000000, 75.303, 126.5041
134.000000, 74.772, 125.7913
136.000000, 74.304, 128.4706
138.000000, 74.205, 131.8179
140.000000, 74.340, 133.3266
143.000000, 74.594, 133.2888
145.000000, 74.664, 132.5087
147.500000, 74.523, 131.3945
150.000000, 74.284, 130.7782
152.500000, 74.073, 131.0704
155.000000, 73.927, 131.5974
157.500000, 73.857, 132.9876
160.000000, 73.819, 134.5114
162.500000, 73.700, 135.8668
165.000000, 73.445, 137.4563
167.500000, 73.117, 139.1266
170.000000, 72.843, 139.4503
172.500000, 72.744, 138.8328
175.000000, 72.828, 138.8461
177.500000, 72.909, 139.8384
180.000000, 72.852, 140.8593
182.500000, 72.787, 142.0557
185.000000, 72.770, 142.9370
187.500000, 72.751, 143.3740
190.000000, 72.745, 143.7606
192.500000, 72.798, 144.6127
195.000000, 72.811, 145.2226
197.500000, 72.808, 145.3417
200.000000, 72.784, 145.8596
203.000000, 72.696, 146.2216
206.000000, 72.679, 146.7697
209.000000, 72.683, 147.2094
212.000000, 72.736, 147.8012
214.000000, 72.760, 148.0882
218.000000, 72.783, 148.5826
220.000000, 72.785, 148.7326
224.000000, 72.795, 149.1320
227.000000, 72.806, 149.4860
230.000000, 72.804, 149.8159
233.000000, 72.797, 150.0095
236.000000, 72.806, 150.1561
240.000000, 72.815, 150.4794
243.000000, 72.815, 150.8681
247.000000, 72.823, 151.2274
250.000000, 72.841, 151.3531
254.000000, 72.874, 151.5565
258.000000, 72.882, 151.8451
262.000000, 72.903, 151.9776
265.000000, 72.917, 152.1792
269.000000, 72.899, 152.5735
272.000000, 72.902, 152.7032
276.000000, 72.943, 152.7446
280.000000, 72.975, 153.0070
285.000000, 72.993, 153.1845
290.000000, 72.984, 153.1586
295.000000, 72.998, 153.3993
300.000000, 73.058, 153.7147
304.000000, 73.083, 153.8488
307.000000, 73.089, 153.8983
311.000000, 73.106, 153.8817
315.000000, 73.123, 153.9180
320.000000, 73.139, 154.1246
325.000000, 73.160, 154.2408
330.000000, 73.180, 154.3039
335.000000, 73.207, 154.2375
340.000000, 73.236, 154.0408
345.000000, 73.266, 153.9905
350.000000, 73.271, 153.9972
355.000000, 73.254, 154.0567
360.000000, 73.263, 154.1088
365.000000, 73.302, 154.0530
370.000000, 73.316, 154.0939
375.000000, 73.312, 154.0365
382.000000, 73.335, 153.7904
387.000000, 73.344, 153.7405
395.000000, 73.345, 153.6788
400.000000, 73.369, 153.6057
406.000000, 73.388, 153.5602
412.000000, 73.385, 153.5174
418.000000, 73.393, 153.4095
425.000000, 73.423, 153.3503
431.000000, 73.421, 153.2688
437.000000, 73.410, 153.2403
444.000000, 73.398, 153.1931
450.000000, 73.391, 153.1249
455.000000, 73.398, 153.0843
462.000000, 73.411, 152.9272
468.000000, 73.415, 152.9032
475.000000, 73.413, 152.9966
482.000000, 73.407, 152.9107
487.000000, 73.408, 152.8064
494.000000, 73.405, 152.6241
500.000000, 73.394, 152.5092
508.000000, 73.381, 152.7056
515.000000, 73.374, 152.7308
522.000000, 73.373, 152.6268
530.000000, 73.373, 152.6031
538.000000, 73.370, 152.4119
545.000000, 73.363, 152.3151
552.000000, 73.366, 152.2072
560.000000, 73.359, 152.1923
570.000000, 73.345, 152.2201
580.000000, 73.366, 152.3110
590.000000, 73.351, 152.4548
600.000000, 73.326, 152.3401
608.000000, 73.328, 152.3525
615.000000, 73.331, 152.3788
622.000000, 73.336, 152.4377
630.000000, 73.335, 152.5801
640.000000, 73.327, 152.7267
650.000000, 73.334, 152.9116
660.000000, 73.340, 153.0533
670.000000, 73.338, 153.2133
680.000000, 73.342, 153.2867
690.000000, 73.336, 153.3773
700.000000, 73.333, 153.6021
710.000000, 73.349, 153.8630
720.000000, 73.372, 154.1122
730.000000, 73.386, 154.4024
740.000000, 73.394, 154.7162
750.000000, 73.396, 155.0159
762.000000, 73.418, 155.3912
775.000000, 73.474, 155.8333
788.000000, 73.548, 156.3825
800.000000, 73.627, 156.7111
812.000000, 73.694, 157.1113
825.000000, 73.797, 157.5280
838.000000, 73.935, 157.8266
850.000000, 74.053, 158.1380
862.000000, 74.171, 158.4310
875.000000, 74.301, 158.5353
885.000000, 74.398, 158.5452
900.000000, 74.529, 158.5130
912.000000, 74.636, 158.4474
925.000000, 74.761, 158.3620
938.000000, 74.871, 158.2761
950.000000, 74.960, 158.1519
962.000000, 75.058, 158.0392
975.000000, 75.166, 157.8909
988.000000, 75.284, 157.6949
1000.000000, 75.388, 157.5871
1015.000000, 75.505, 157.6328
1030.000000, 75.638, 157.4965
1044.000000, 75.769, 157.3936
1060.000000, 75.914, 157.2219
1075.000000, 76.048, 156.9626
1090.000000, 76.193, 156.6687
1106.000000, 76.349, 156.3180
1120.000000, 76.481, 155.9113
1138.000000, 76.656, 155.4074
1150.000000, 76.777, 155.1037
1172.000000, 76.997, 154.3838
1180.000000, 77.073, 154.1299
1206.000000, 77.303, 153.2513
1220.000000, 77.427, 152.7408
1241.000000, 77.613, 151.9164
1250.000000, 77.688, 151.5380
1265.000000, 77.810, 150.8576
1280.000000, 77.933, 150.1708
1315.000000, 78.211, 148.6351
1320.000000, 78.251, 148.4109
1340.000000, 78.409, 147.5017
1360.000000, 78.562, 146.5549
1380.000000, 78.704, 145.6237
1400.000000, 78.840, 144.6854
1430.000000, 79.033, 143.1314
1450.000000, 79.166, 142.1078
1475.000000, 79.330, 140.9014
1500.000000, 79.485, 139.6633
1525.000000, 79.639, 138.3960
1550.000000, 79.789, 137.0790
1575.000000, 79.934, 135.7947
1600.000000, 80.082, 134.4992
1625.000000, 80.228, 133.1323
1650.000000, 80.370, 131.6818
1675.000000, 80.504, 130.2867
1700.000000, 80.632, 128.9105
1725.000000, 80.756, 127.4492
1750.000000, 80.878, 125.9610
1775.000000, 81.000, 124.4356
1800.000000, 81.120, 122.8639
1825.000000, 81.226, 121.2609
1850.000000, 81.326, 119.6791
1875.000000, 81.419, 117.9898
1900.000000, 81.504, 116.2274
1925.000000, 81.582, 114.4549
1950.000000, 81.650, 112.6681
1975.000000, 81.703, 110.8771
2000.000000, 81.746, 109.1795
2030.000000, 81.791, 106.9909
2060.000000, 81.830, 104.6872
2090.000000, 81.844, 102.5010
2120.000000, 81.831, 100.4195
2140.000000, 81.810, 99.0280
2180.000000, 81.739, 96.3089
2200.000000, 81.692, 95.0227
2240.000000, 81.582, 92.6223
2270.000000, 81.486, 90.9314
2300.000000, 81.379, 89.3236
2330.000000, 81.267, 87.8365
2360.000000, 81.154, 86.4383
2400.000000, 80.997, 84.7518
2430.000000, 80.881, 83.6829
2470.000000, 80.723, 82.5041
2500.000000, 80.606, 81.7114
2540.000000, 80.462, 80.8115
2580.000000, 80.337, 80.1176
2620.000000, 80.237, 79.5407
2650.000000, 80.177, 79.1605
2690.000000, 80.112, 78.6993
2720.000000, 80.072, 78.4019
2760.000000, 80.046, 78.0972
2800.000000, 80.053, 77.8017
2850.000000, 80.082, 77.3215
2900.000000, 80.135, 76.7147
2950.000000, 80.218, 75.9960
3000.000000, 80.326, 75.1848
3040.000000, 80.418, 74.4602
3070.000000, 80.486, 73.8680
3110.000000, 80.582, 73.0056
3150.000000, 80.675, 72.0179
3200.000000, 80.787, 70.6019
3250.000000, 80.892, 69.0063
3300.000000, 80.975, 67.3274
3350.000000, 81.032, 65.6297
3400.000000, 81.065, 63.9061
3450.000000, 81.079, 62.2590
3500.000000, 81.069, 60.7407
3550.000000, 81.054, 59.3314
3600.000000, 81.040, 58.0559
3650.000000, 81.025, 56.8919
3700.000000, 81.022, 55.7696
3750.000000, 81.035, 54.6416
3820.000000, 81.065, 53.1207
3870.000000, 81.099, 52.0818
3950.000000, 81.179, 50.4649
4000.000000, 81.247, 49.4016
4060.000000, 81.345, 48.0713
4120.000000, 81.455, 46.6437
4180.000000, 81.584, 45.0622
4250.000000, 81.738, 42.9149
4310.000000, 81.862, 40.7382
4370.000000, 81.976, 38.3477
4440.000000, 82.068, 35.2991
4500.000000, 82.099, 32.4886
4550.000000, 82.087, 30.0069
4620.000000, 82.003, 26.4896
4680.000000, 81.864, 23.5748
4750.000000, 81.624, 20.3643
4820.000000, 81.330, 17.4098
4870.000000, 81.090, 15.5500
4940.000000, 80.717, 13.3392
5000.000000, 80.376, 11.8040
5080.000000, 79.904, 10.2234
5150.000000, 79.492, 9.3451
5220.000000, 79.098, 9.0198
5300.000000, 78.689, 9.1576
5380.000000, 78.334, 9.6582
5450.000000, 78.060, 10.2812
5520.000000, 77.834, 11.0280
5600.000000, 77.637, 11.9876
5700.000000, 77.480, 13.2525
5800.000000, 77.413, 14.2242
5900.000000, 77.387, 14.7145
6000.000000, 77.325, 14.8207
6080.000000, 77.238, 14.9742
6150.000000, 77.147, 15.2308
6220.000000, 77.057, 15.5695
6300.000000, 76.969, 15.9756
6400.000000, 76.869, 16.5158
6500.000000, 76.776, 17.1909
6600.000000, 76.694, 17.9690
6700.000000, 76.629, 18.8875
6800.000000, 76.580, 19.9867
6900.000000, 76.544, 21.1772
7000.000000, 76.529, 22.4858
7100.000000, 76.533, 23.8762
7200.000000, 76.574, 25.2519
7300.000000, 76.644, 26.7308
7400.000000, 76.727, 28.3225
7500.000000, 76.840, 29.9407
7620.000000, 77.002, 31.8495
7750.000000, 77.222, 34.0295
7880.000000, 77.526, 36.3512
8000.000000, 77.876, 38.5876
8120.000000, 78.273, 40.8045
8250.000000, 78.795, 43.0786
8380.000000, 79.435, 45.1959
8500.000000, 80.126, 46.9660
8620.000000, 80.927, 48.4590
8750.000000, 81.931, 49.5597
8850.000000, 82.816, 49.8735
9000.000000, 84.355, 49.0466
9120.000000, 85.778, 46.6289
9250.000000, 87.455, 41.2339
9380.000000, 89.071, 31.9995
9500.000000, 90.209, 19.8818
9620.000000, 90.719, 5.4602
9750.000000, 90.429, -10.1878
9880.000000, 89.424, -23.1699
10000.000000, 88.168, -31.6500
10150.000000, 86.555, -37.9000
10300.000000, 85.146, -40.7149
10440.000000, 84.086, -41.5010
10600.000000, 83.172, -41.2520
10750.000000, 82.577, -40.6160
10900.000000, 82.198, -40.1865
11060.000000, 81.964, -40.5273
11200.000000, 81.828, -41.7836
11380.000000, 81.630, -44.8719
11500.000000, 81.404, -47.8257
11720.000000, 80.609, -54.0872
11800.000000, 80.177, -56.1703
12060.000000, 78.361, -60.3032
12200.000000, 77.261, -60.3489
12410.000000, 75.679, -57.7126
12500.000000, 75.062, -55.7665
12650.000000, 74.141, -51.6961
12800.000000, 73.375, -46.9605
13150.000000, 72.123, -34.9855
13200.000000, 72.002, -33.3026
13400.000000, 71.652, -26.8109
13600.000000, 71.427, -20.7522
13800.000000, 71.289, -14.7919
14000.000000, 71.259, -9.0176
14300.000000, 71.407, -0.6581
14500.000000, 71.670, 4.7756
14750.000000, 72.187, 10.7404
15000.000000, 72.953, 15.2657
15250.000000, 73.945, 17.6772
15500.000000, 75.027, 17.0358
15750.000000, 75.985, 12.6931
16000.000000, 76.505, 5.4205
16250.000000, 76.404, -3.0837
16500.000000, 75.711, -10.7123
16750.000000, 74.560, -15.7881
17000.000000, 73.194, -17.8817
17250.000000, 71.827, -17.1166
17500.000000, 70.561, -13.9465
17750.000000, 69.405, -8.9234
18000.000000, 68.440, -2.0857
18250.000000, 67.836, 6.5620
18500.000000, 67.754, 15.7407
18750.000000, 68.235, 22.6967
19000.000000, 68.970, 24.9365
19250.000000, 69.514, 21.9268
19500.000000, 69.498, 15.3435
19750.000000, 68.840, 8.3160
20000.000000, 68.138, 3.5144
