* Measurement data measured by REW V5.31.3
* Source: Input device not selected, no input selected, L, volume: no control
* Format: 256k Log Swept Sine, 1 sweep at -12.0 dBFS with no timing reference
* Dated: Sep 23, 2024 11:16:40 PM
* REW Settings:
*  C-weighting compensation: Off
*  Target level: 75.0 dB
* Note: ; 
* Measurement: N5005 (Reference, Foam) L
* Smoothing: 1/24 octave
* Frequency Step: 1/48 octave
* Start Frequency: 20.300 Hz
*
* Freq(Hz), SPL(dB), Phase(degrees)
20.299999, 84.925, -171.3716
20.600000, 84.933, -171.9733
20.900000, 84.947, -172.6623
21.200001, 84.964, -173.4059
21.400000, 84.973, -173.9216
21.799999, 84.978, -174.9389
22.000000, 84.974, -175.4065
22.400000, 84.954, -176.1996
22.700001, 84.940, -176.6714
23.000000, 84.934, -177.0842
23.299999, 84.939, -177.5042
23.600000, 84.953, -177.9892
24.000000, 84.973, -178.7750
24.299999, 84.982, -179.4436
24.700001, 84.981, 179.6442
25.000000, 84.974, 178.9975
25.400000, 84.963, 178.2169
25.799999, 84.956, 177.5031
26.200001, 84.952, 176.8005
26.500000, 84.947, 176.2588
26.900000, 84.934, 175.5182
27.200001, 84.920, 174.9641
27.600000, 84.898, 174.2501
28.000000, 84.880, 173.5739
28.500000, 84.862, 172.7654
29.000000, 84.848, 171.9627
29.500000, 84.831, 171.1426
30.000000, 84.805, 170.3123
30.400000, 84.778, 169.6637
30.700001, 84.756, 169.2020
31.100000, 84.726, 168.6330
31.500000, 84.700, 168.1156
32.000000, 84.677, 167.4992
32.500000, 84.660, 166.8408
33.000000, 84.640, 166.0912
33.500000, 84.609, 165.2771
34.000000, 84.569, 164.4757
34.500000, 84.528, 163.7464
35.000000, 84.494, 163.0922
35.500000, 84.465, 162.4782
36.000000, 84.435, 161.8702
36.500000, 84.402, 161.2482
37.000000, 84.365, 160.6002
37.500000, 84.323, 159.9263
38.200001, 84.257, 158.9854
38.700001, 84.210, 158.3560
39.500000, 84.151, 157.4176
40.000000, 84.121, 156.8485
40.599998, 84.082, 156.2017
41.200001, 84.039, 155.6198
41.799999, 83.995, 155.0516
42.500000, 83.940, 154.3066
43.099998, 83.885, 153.6280
43.700001, 83.832, 152.9937
44.400002, 83.781, 152.2932
45.000000, 83.738, 151.6505
45.500000, 83.690, 151.0946
46.200001, 83.612, 150.3844
46.799999, 83.555, 149.8632
47.500000, 83.506, 149.2605
48.200001, 83.452, 148.5996
48.700001, 83.400, 148.1218
49.400002, 83.317, 147.4890
50.000000, 83.247, 146.9695
50.799999, 83.163, 146.2747
51.500000, 83.095, 145.6834
52.200001, 83.033, 145.1472
53.000000, 82.965, 144.6090
53.799999, 82.889, 144.0654
54.500000, 82.802, 143.4859
55.200001, 82.694, 142.8294
56.000000, 82.578, 142.1341
57.000000, 82.492, 141.3789
58.000000, 82.413, 140.5533
59.000000, 82.296, 139.7202
60.000000, 82.189, 139.0592
60.799999, 82.125, 138.7040
61.500000, 82.072, 138.4277
62.200001, 82.009, 138.0396
63.000000, 81.922, 137.4344
64.000000, 81.813, 136.6685
65.000000, 81.719, 136.0126
66.000000, 81.614, 135.4330
67.000000, 81.498, 134.8869
68.000000, 81.376, 134.3416
69.000000, 81.255, 133.9330
70.000000, 81.155, 133.6320
71.000000, 81.062, 133.2537
72.000000, 80.962, 132.7318
73.000000, 80.846, 132.1740
74.000000, 80.714, 131.7361
75.000000, 80.595, 131.3260
76.199997, 80.485, 130.7549
77.500000, 80.356, 130.2473
78.800003, 80.184, 129.8327
80.000000, 80.034, 129.4426
81.199997, 79.901, 129.1229
82.500000, 79.756, 128.7233
83.800003, 79.611, 128.2901
85.000000, 79.484, 128.0122
86.199997, 79.358, 127.7536
87.500000, 79.224, 127.4298
88.500000, 79.114, 127.1608
90.000000, 78.937, 126.9099
91.199997, 78.814, 126.7601
92.500000, 78.685, 126.5187
93.800003, 78.551, 126.2132
95.000000, 78.427, 125.9241
96.199997, 78.302, 125.7273
97.500000, 78.174, 125.6905
98.800003, 78.033, 125.6400
100.000000, 77.893, 125.4964
101.500000, 77.758, 125.2809
103.000000, 77.624, 125.2153
104.400002, 77.471, 125.1113
106.000000, 77.315, 125.0207
107.500000, 77.185, 125.0012
109.000000, 77.039, 124.9973
110.599998, 76.885, 125.1331
112.000000, 76.759, 125.2596
113.800003, 76.577, 125.3588
115.000000, 76.466, 125.3479
117.199997, 76.271, 125.3779
118.000000, 76.196, 125.4762
120.599998, 75.972, 126.0049
122.000000, 75.856, 126.2191
124.099998, 75.675, 126.3408
125.000000, 75.598, 126.4080
126.500000, 75.488, 126.5646
128.000000, 75.400, 126.8262
131.500000, 75.171, 127.6553
132.000000, 75.135, 127.7407
134.000000, 74.998, 128.0909
136.000000, 74.861, 128.3969
138.000000, 74.728, 128.6822
140.000000, 74.584, 129.0334
143.000000, 74.388, 129.6981
145.000000, 74.284, 130.2087
147.500000, 74.168, 130.9676
150.000000, 74.046, 131.7149
152.500000, 73.941, 132.3681
155.000000, 73.831, 132.9156
157.500000, 73.711, 133.4608
160.000000, 73.641, 134.1402
162.500000, 73.575, 134.9020
165.000000, 73.473, 135.4861
167.500000, 73.382, 136.0924
170.000000, 73.325, 136.7419
172.500000, 73.277, 137.3290
175.000000, 73.218, 137.9481
177.500000, 73.156, 138.5841
180.000000, 73.105, 139.1141
182.500000, 73.052, 139.7425
185.000000, 72.995, 140.4305
187.500000, 72.944, 141.1262
190.000000, 72.918, 141.7620
192.500000, 72.895, 142.1657
195.000000, 72.878, 142.5445
197.500000, 72.861, 142.9966
200.000000, 72.829, 143.3929
203.000000, 72.805, 143.8156
206.000000, 72.798, 144.5962
209.000000, 72.789, 145.1893
212.000000, 72.787, 145.5304
214.000000, 72.795, 145.8745
218.000000, 72.811, 146.6480
220.000000, 72.798, 146.9662
224.000000, 72.748, 147.5690
227.000000, 72.761, 147.8709
230.000000, 72.786, 148.1744
233.000000, 72.793, 148.5540
236.000000, 72.808, 148.9383
240.000000, 72.822, 149.5444
243.000000, 72.827, 149.8610
247.000000, 72.861, 150.0758
250.000000, 72.862, 150.3186
254.000000, 72.874, 150.5471
258.000000, 72.910, 150.7479
262.000000, 72.930, 151.0864
265.000000, 72.928, 151.2796
269.000000, 72.929, 151.5568
272.000000, 72.935, 151.7590
276.000000, 72.947, 151.9966
280.000000, 72.979, 152.1806
285.000000, 73.037, 152.2216
290.000000, 73.035, 152.4702
295.000000, 73.032, 152.6574
300.000000, 73.044, 152.7344
304.000000, 73.069, 152.7736
307.000000, 73.092, 152.7897
311.000000, 73.112, 152.8895
315.000000, 73.123, 153.0923
320.000000, 73.148, 153.1560
325.000000, 73.164, 153.1091
330.000000, 73.167, 153.1509
335.000000, 73.189, 153.1284
340.000000, 73.223, 153.2007
345.000000, 73.251, 153.2332
350.000000, 73.279, 153.1407
355.000000, 73.291, 153.0545
360.000000, 73.300, 152.9982
365.000000, 73.286, 152.9612
370.000000, 73.284, 152.9779
375.000000, 73.296, 153.0628
382.000000, 73.306, 153.2253
387.000000, 73.307, 153.2764
395.000000, 73.319, 153.1483
400.000000, 73.313, 152.9681
406.000000, 73.315, 152.8501
412.000000, 73.352, 152.7368
418.000000, 73.362, 152.6399
425.000000, 73.370, 152.5153
431.000000, 73.376, 152.4000
437.000000, 73.363, 152.3523
444.000000, 73.348, 152.4350
450.000000, 73.354, 152.4777
455.000000, 73.363, 152.4145
462.000000, 73.367, 152.2892
468.000000, 73.359, 152.1144
475.000000, 73.358, 152.0796
482.000000, 73.377, 152.0872
487.000000, 73.389, 152.0924
494.000000, 73.387, 152.0251
500.000000, 73.375, 151.9922
508.000000, 73.366, 151.8798
515.000000, 73.361, 151.7454
522.000000, 73.363, 151.6948
530.000000, 73.361, 151.7192
538.000000, 73.362, 151.6806
545.000000, 73.352, 151.5995
552.000000, 73.335, 151.5341
560.000000, 73.337, 151.5784
570.000000, 73.327, 151.7014
580.000000, 73.311, 151.5655
590.000000, 73.316, 151.6594
600.000000, 73.303, 151.7943
608.000000, 73.302, 151.7379
615.000000, 73.290, 151.7372
622.000000, 73.277, 151.8170
630.000000, 73.280, 151.9128
640.000000, 73.280, 151.9862
650.000000, 73.264, 151.9993
660.000000, 73.266, 152.2047
670.000000, 73.265, 152.3060
680.000000, 73.279, 152.4128
690.000000, 73.291, 152.5375
700.000000, 73.296, 152.6983
710.000000, 73.300, 152.9305
720.000000, 73.311, 153.1467
730.000000, 73.337, 153.3863
740.000000, 73.344, 153.6547
750.000000, 73.340, 153.8937
762.000000, 73.349, 154.2497
775.000000, 73.412, 154.6866
788.000000, 73.466, 155.0628
800.000000, 73.507, 155.5124
812.000000, 73.577, 155.9819
825.000000, 73.672, 156.3774
838.000000, 73.759, 156.7621
850.000000, 73.851, 157.1605
862.000000, 73.978, 157.3902
875.000000, 74.128, 157.5324
885.000000, 74.230, 157.6439
900.000000, 74.360, 157.7154
912.000000, 74.466, 157.6301
925.000000, 74.593, 157.5869
938.000000, 74.729, 157.5572
950.000000, 74.838, 157.4110
962.000000, 74.936, 157.3400
975.000000, 75.048, 157.2795
988.000000, 75.165, 157.3226
1000.000000, 75.268, 157.2769
1015.000000, 75.371, 156.9753
1030.000000, 75.510, 156.6634
1044.000000, 75.643, 156.5116
1060.000000, 75.782, 156.2633
1075.000000, 75.916, 156.0287
1090.000000, 76.064, 155.8130
1106.000000, 76.213, 155.4942
1120.000000, 76.339, 155.0861
1138.000000, 76.514, 154.4919
1150.000000, 76.628, 154.1098
1172.000000, 76.813, 153.5106
1180.000000, 76.878, 153.2710
1206.000000, 77.093, 152.4005
1220.000000, 77.215, 151.8728
1241.000000, 77.385, 151.0168
1250.000000, 77.455, 150.6267
1265.000000, 77.569, 150.0251
1280.000000, 77.681, 149.4564
1315.000000, 77.951, 148.0073
1320.000000, 77.989, 147.8014
1340.000000, 78.134, 146.9364
1360.000000, 78.284, 146.0177
1380.000000, 78.426, 145.1155
1400.000000, 78.560, 144.2328
1430.000000, 78.743, 142.9154
1450.000000, 78.868, 141.9783
1475.000000, 79.031, 140.7941
1500.000000, 79.182, 139.6116
1525.000000, 79.316, 138.4424
1550.000000, 79.462, 137.2211
1575.000000, 79.608, 136.0418
1600.000000, 79.747, 134.8251
1625.000000, 79.889, 133.5285
1650.000000, 80.035, 132.1632
1675.000000, 80.179, 130.8482
1700.000000, 80.314, 129.5502
1725.000000, 80.444, 128.2123
1750.000000, 80.571, 126.7866
1775.000000, 80.696, 125.3669
1800.000000, 80.818, 123.9052
1825.000000, 80.941, 122.3887
1850.000000, 81.052, 120.8271
1875.000000, 81.158, 119.2517
1900.000000, 81.260, 117.6225
1925.000000, 81.349, 115.9710
1950.000000, 81.427, 114.2802
1975.000000, 81.498, 112.4709
2000.000000, 81.555, 110.6343
2030.000000, 81.597, 108.5324
2060.000000, 81.625, 106.4335
2090.000000, 81.638, 104.3470
2120.000000, 81.644, 102.2926
2140.000000, 81.636, 100.9393
2180.000000, 81.588, 98.2806
2200.000000, 81.550, 96.9746
2240.000000, 81.457, 94.5157
2270.000000, 81.375, 92.8339
2300.000000, 81.279, 91.2380
2330.000000, 81.173, 89.7145
2360.000000, 81.060, 88.3094
2400.000000, 80.910, 86.6692
2430.000000, 80.796, 85.5703
2470.000000, 80.639, 84.3219
2500.000000, 80.527, 83.5527
2540.000000, 80.394, 82.6729
2580.000000, 80.269, 81.9377
2620.000000, 80.164, 81.3426
2650.000000, 80.105, 80.9551
2690.000000, 80.049, 80.5148
2720.000000, 80.020, 80.2238
2760.000000, 79.999, 79.8404
2800.000000, 79.994, 79.4660
2850.000000, 80.020, 79.0384
2900.000000, 80.066, 78.5325
2950.000000, 80.136, 77.9597
3000.000000, 80.227, 77.2121
3040.000000, 80.321, 76.5972
3070.000000, 80.398, 76.0649
3110.000000, 80.505, 75.2238
3150.000000, 80.607, 74.2508
3200.000000, 80.721, 72.8469
3250.000000, 80.824, 71.3300
3300.000000, 80.911, 69.7668
3350.000000, 80.972, 68.1809
3400.000000, 81.008, 66.5701
3450.000000, 81.020, 65.0245
3500.000000, 81.023, 63.6245
3550.000000, 81.020, 62.2951
3600.000000, 81.018, 61.0345
3650.000000, 81.021, 59.9166
3700.000000, 81.033, 58.8776
3750.000000, 81.052, 57.8756
3820.000000, 81.094, 56.5321
3870.000000, 81.140, 55.6019
3950.000000, 81.238, 54.1142
4000.000000, 81.313, 53.0992
4060.000000, 81.420, 51.8680
4120.000000, 81.537, 50.5591
4180.000000, 81.668, 49.1164
4250.000000, 81.841, 47.2245
4310.000000, 81.989, 45.3837
4370.000000, 82.123, 43.3031
4440.000000, 82.245, 40.5103
4500.000000, 82.312, 37.9228
4550.000000, 82.334, 35.6512
4620.000000, 82.299, 32.3838
4680.000000, 82.210, 29.6647
4750.000000, 82.049, 26.6617
4820.000000, 81.836, 23.8575
4870.000000, 81.654, 22.0387
4940.000000, 81.356, 19.8338
5000.000000, 81.069, 18.3060
5080.000000, 80.685, 16.7264
5150.000000, 80.354, 15.7915
5220.000000, 80.035, 15.3154
5300.000000, 79.706, 15.2097
5380.000000, 79.418, 15.4125
5450.000000, 79.205, 15.8392
5520.000000, 79.034, 16.3570
5600.000000, 78.886, 17.0164
5700.000000, 78.771, 17.9777
5800.000000, 78.737, 18.8508
5900.000000, 78.767, 19.3282
6000.000000, 78.788, 19.4045
6080.000000, 78.777, 19.4245
6150.000000, 78.754, 19.5162
6220.000000, 78.731, 19.6612
6300.000000, 78.721, 19.9103
6400.000000, 78.716, 20.2838
6500.000000, 78.729, 20.7694
6600.000000, 78.759, 21.4106
6700.000000, 78.796, 22.0931
6800.000000, 78.862, 22.7691
6900.000000, 78.966, 23.5248
7000.000000, 79.104, 24.3577
7100.000000, 79.278, 25.2399
7200.000000, 79.490, 26.1115
7300.000000, 79.738, 26.9491
7400.000000, 80.034, 27.7292
7500.000000, 80.375, 28.3694
7620.000000, 80.838, 28.8925
7750.000000, 81.432, 29.2461
7880.000000, 82.154, 29.1318
8000.000000, 82.931, 28.3218
8120.000000, 83.804, 26.4342
8250.000000, 84.828, 22.7832
8380.000000, 85.850, 16.9035
8500.000000, 86.663, 9.2319
8620.000000, 87.192, -0.3963
8750.000000, 87.285, -12.0151
8850.000000, 86.979, -20.8108
9000.000000, 86.016, -32.0612
9120.000000, 84.974, -38.6609
9250.000000, 83.761, -43.4119
9380.000000, 82.583, -46.0970
9500.000000, 81.587, -47.1951
9620.000000, 80.695, -47.3130
9750.000000, 79.842, -46.6524
9880.000000, 79.105, -45.4209
10000.000000, 78.524, -43.8944
10150.000000, 77.926, -41.6752
10300.000000, 77.453, -39.3428
10440.000000, 77.119, -37.0824
10600.000000, 76.852, -34.5125
10750.000000, 76.708, -32.4197
10900.000000, 76.658, -30.8289
11060.000000, 76.675, -29.8759
11200.000000, 76.717, -29.7484
11380.000000, 76.735, -30.6458
11500.000000, 76.661, -31.9895
11720.000000, 76.258, -35.0900
11800.000000, 76.012, -36.1041
12060.000000, 74.903, -37.7325
12200.000000, 74.186, -37.2424
12410.000000, 73.135, -34.5598
12500.000000, 72.729, -32.7857
12650.000000, 72.123, -29.2087
12800.000000, 71.623, -25.0639
13150.000000, 70.915, -14.5846
13200.000000, 70.854, -13.0944
13400.000000, 70.676, -7.3170
13600.000000, 70.599, -1.8777
13800.000000, 70.623, 3.3990
14000.000000, 70.711, 8.4561
14300.000000, 71.001, 16.0522
14500.000000, 71.338, 20.7579
14750.000000, 71.949, 26.0753
15000.000000, 72.828, 30.4227
15250.000000, 73.919, 32.9625
15500.000000, 75.120, 32.8739
15750.000000, 76.294, 29.5694
16000.000000, 77.249, 23.1710
16250.000000, 77.778, 14.5842
16500.000000, 77.806, 5.2050
16750.000000, 77.376, -3.6891
17000.000000, 76.620, -11.2363
17250.000000, 75.686, -17.5352
17500.000000, 74.633, -23.1503
17750.000000, 73.408, -28.5106
18000.000000, 71.893, -33.2361
18250.000000, 70.054, -36.0665
18500.000000, 67.947, -36.1558
18750.000000, 65.753, -33.2466
19000.000000, 63.681, -27.0212
19250.000000, 61.846, -18.5571
19500.000000, 60.361, -9.3135
19750.000000, 59.296, -0.5232
20000.000000, 58.758, 5.4069
