* Measurement data measured by REW V5.40 beta 102
* Source: Input device not selected, no input selected, L, volume: no control
* Format: 256k Log Swept Sine, 1 sweep at -11.0 dBFS with no timing reference
* Dated: Oct 9, 2025 7:37:57 PM
* REW Settings:
*  C-weighting compensation: Off
*  Target level: 75.0 dB
* Note: ; 
* Measurement: Pandamon 2 (Stock Narrow M) L
* Smoothing: 1/24 octave
* Frequency Step: 1/48 octave
* Start Frequency: 20.300 Hz
*
* Freq(Hz), SPL(dB), Phase(degrees)
20.299999, 80.227, -157.1081
20.600000, 80.230, -157.4275
20.900000, 80.229, -157.7856
21.200001, 80.226, -158.1346
21.400000, 80.225, -158.3555
21.799999, 80.228, -158.7642
22.000000, 80.234, -158.9541
22.400000, 80.253, -159.3189
22.700001, 80.269, -159.5897
23.000000, 80.283, -159.8606
23.299999, 80.292, -160.1253
23.600000, 80.296, -160.3733
24.000000, 80.298, -160.6685
24.299999, 80.301, -160.8712
24.700001, 80.314, -161.1502
25.000000, 80.328, -161.3887
25.400000, 80.350, -161.7510
25.799999, 80.365, -162.1250
26.200001, 80.374, -162.4463
26.500000, 80.379, -162.6293
26.900000, 80.389, -162.8124
27.200001, 80.400, -162.9401
27.600000, 80.417, -163.1507
28.000000, 80.428, -163.4275
28.500000, 80.423, -163.8139
29.000000, 80.409, -164.1575
29.500000, 80.404, -164.4566
30.000000, 80.412, -164.7908
30.400000, 80.420, -165.1051
30.700001, 80.420, -165.3438
31.100000, 80.414, -165.6198
31.500000, 80.405, -165.8161
32.000000, 80.403, -165.9824
32.500000, 80.410, -166.1604
33.000000, 80.417, -166.4098
33.500000, 80.415, -166.6921
34.000000, 80.412, -166.9435
34.500000, 80.419, -167.1599
35.000000, 80.437, -167.3893
35.500000, 80.455, -167.6595
36.000000, 80.459, -167.9400
36.500000, 80.447, -168.1768
37.000000, 80.428, -168.3499
37.500000, 80.417, -168.4953
38.200001, 80.426, -168.7646
38.700001, 80.442, -169.0284
39.500000, 80.456, -169.4317
40.000000, 80.449, -169.5778
40.599998, 80.434, -169.6526
41.200001, 80.419, -169.7137
41.799999, 80.407, -169.8270
42.500000, 80.400, -170.0075
43.099998, 80.400, -170.1724
43.700001, 80.403, -170.3466
44.400002, 80.408, -170.5727
45.000000, 80.413, -170.7867
45.500000, 80.416, -170.9689
46.200001, 80.410, -171.1843
46.799999, 80.396, -171.3040
47.500000, 80.384, -171.4283
48.200001, 80.385, -171.6490
48.700001, 80.389, -171.8594
49.400002, 80.392, -172.1021
50.000000, 80.390, -172.1839
50.799999, 80.383, -172.1912
51.500000, 80.375, -172.2620
52.200001, 80.368, -172.4465
53.000000, 80.359, -172.7061
53.799999, 80.345, -172.9112
54.500000, 80.330, -173.0504
55.200001, 80.318, -173.2099
56.000000, 80.308, -173.4233
57.000000, 80.296, -173.5975
58.000000, 80.286, -173.7195
59.000000, 80.266, -173.9434
60.000000, 80.247, -174.0793
60.799999, 80.246, -174.1456
61.500000, 80.242, -174.2278
62.200001, 80.233, -174.3093
63.000000, 80.230, -174.4341
64.000000, 80.225, -174.6774
65.000000, 80.212, -174.8849
66.000000, 80.196, -175.0665
67.000000, 80.166, -175.2080
68.000000, 80.144, -175.2993
69.000000, 80.132, -175.4043
70.000000, 80.117, -175.4740
71.000000, 80.099, -175.5766
72.000000, 80.084, -175.7298
73.000000, 80.078, -175.8150
74.000000, 80.071, -175.8855
75.000000, 80.051, -176.0325
76.199997, 80.027, -176.2160
77.500000, 80.004, -176.2749
78.800003, 79.983, -176.3267
80.000000, 79.971, -176.4241
81.199997, 79.959, -176.4857
82.500000, 79.944, -176.6377
83.800003, 79.925, -176.8221
85.000000, 79.899, -176.8755
86.199997, 79.870, -176.9144
87.500000, 79.845, -177.0017
88.500000, 79.827, -177.0805
90.000000, 79.804, -177.2167
91.199997, 79.788, -177.3192
92.500000, 79.767, -177.4530
93.800003, 79.739, -177.5325
95.000000, 79.715, -177.5244
96.199997, 79.693, -177.5290
97.500000, 79.667, -177.5659
98.800003, 79.641, -177.6169
100.000000, 79.617, -177.6784
101.500000, 79.591, -177.7103
103.000000, 79.569, -177.7436
104.400002, 79.546, -177.8009
106.000000, 79.518, -177.8832
107.500000, 79.486, -177.9484
109.000000, 79.453, -178.0036
110.599998, 79.425, -178.0389
112.000000, 79.401, -177.9939
113.800003, 79.371, -177.9667
115.000000, 79.350, -177.9871
117.199997, 79.308, -178.0311
118.000000, 79.292, -178.0452
120.599998, 79.241, -178.0496
122.000000, 79.213, -178.0424
124.099998, 79.169, -178.0253
125.000000, 79.151, -178.0380
126.500000, 79.122, -178.0832
128.000000, 79.094, -178.1267
131.500000, 79.025, -178.0687
132.000000, 79.015, -178.0552
134.000000, 78.975, -178.0119
136.000000, 78.933, -177.9723
138.000000, 78.889, -177.9212
140.000000, 78.848, -177.8556
143.000000, 78.789, -177.7098
145.000000, 78.744, -177.6171
147.500000, 78.682, -177.6487
150.000000, 78.637, -177.6488
152.500000, 78.589, -177.5108
155.000000, 78.530, -177.3936
157.500000, 78.472, -177.2892
160.000000, 78.413, -177.1592
162.500000, 78.356, -177.0597
165.000000, 78.293, -176.9264
167.500000, 78.227, -176.7440
170.000000, 78.167, -176.5685
172.500000, 78.104, -176.3805
175.000000, 78.035, -176.1574
177.500000, 77.964, -175.8442
180.000000, 77.886, -175.4695
182.500000, 77.811, -175.0655
185.000000, 77.738, -174.5243
187.500000, 77.678, -173.8715
190.000000, 77.646, -173.1432
192.500000, 77.641, -172.3896
195.000000, 77.661, -171.7422
197.500000, 77.701, -171.2478
200.000000, 77.749, -170.9431
203.000000, 77.795, -170.8409
206.000000, 77.814, -170.8604
209.000000, 77.811, -170.9181
212.000000, 77.789, -170.9424
214.000000, 77.766, -170.9190
218.000000, 77.714, -170.8565
220.000000, 77.687, -170.8261
224.000000, 77.626, -170.6730
227.000000, 77.578, -170.4737
230.000000, 77.536, -170.2593
233.000000, 77.494, -170.0415
236.000000, 77.446, -169.8090
240.000000, 77.385, -169.4883
243.000000, 77.343, -169.1998
247.000000, 77.287, -168.8316
250.000000, 77.244, -168.5479
254.000000, 77.183, -168.1349
258.000000, 77.127, -167.7090
262.000000, 77.078, -167.2896
265.000000, 77.045, -166.9934
269.000000, 76.998, -166.5650
272.000000, 76.961, -166.2207
276.000000, 76.915, -165.7563
280.000000, 76.869, -165.3131
285.000000, 76.814, -164.7822
290.000000, 76.763, -164.2010
295.000000, 76.710, -163.6111
300.000000, 76.659, -162.9693
304.000000, 76.621, -162.4380
307.000000, 76.594, -162.0440
311.000000, 76.561, -161.5261
315.000000, 76.532, -161.0211
320.000000, 76.499, -160.3755
325.000000, 76.470, -159.7710
330.000000, 76.448, -159.1619
335.000000, 76.425, -158.5528
340.000000, 76.401, -157.9870
345.000000, 76.380, -157.4511
350.000000, 76.363, -156.9370
355.000000, 76.339, -156.4189
360.000000, 76.311, -155.9110
365.000000, 76.281, -155.4209
370.000000, 76.247, -154.9150
375.000000, 76.216, -154.4072
382.000000, 76.173, -153.6880
387.000000, 76.142, -153.1740
395.000000, 76.090, -152.3257
400.000000, 76.061, -151.7616
406.000000, 76.027, -151.1171
412.000000, 75.990, -150.4620
418.000000, 75.954, -149.7843
425.000000, 75.914, -148.9800
431.000000, 75.880, -148.3067
437.000000, 75.850, -147.6255
444.000000, 75.813, -146.7981
450.000000, 75.781, -146.0851
455.000000, 75.755, -145.4789
462.000000, 75.724, -144.6439
468.000000, 75.700, -143.9308
475.000000, 75.675, -143.1003
482.000000, 75.652, -142.2832
487.000000, 75.638, -141.7081
494.000000, 75.618, -140.9014
500.000000, 75.602, -140.2127
508.000000, 75.579, -139.3451
515.000000, 75.558, -138.5323
522.000000, 75.539, -137.6826
530.000000, 75.521, -136.7558
538.000000, 75.502, -135.8445
545.000000, 75.486, -135.0432
552.000000, 75.471, -134.2551
560.000000, 75.457, -133.3454
570.000000, 75.440, -132.1704
580.000000, 75.425, -131.0126
590.000000, 75.416, -129.8742
600.000000, 75.405, -128.7450
608.000000, 75.395, -127.8359
615.000000, 75.387, -127.0372
622.000000, 75.381, -126.2315
630.000000, 75.376, -125.3202
640.000000, 75.377, -124.1737
650.000000, 75.378, -123.0387
660.000000, 75.380, -121.8979
670.000000, 75.382, -120.7684
680.000000, 75.385, -119.6548
690.000000, 75.389, -118.5322
700.000000, 75.395, -117.3960
710.000000, 75.401, -116.2783
720.000000, 75.410, -115.1637
730.000000, 75.424, -114.0504
740.000000, 75.437, -112.9541
750.000000, 75.450, -111.8421
762.000000, 75.471, -110.5058
775.000000, 75.498, -109.0628
788.000000, 75.520, -107.6519
800.000000, 75.542, -106.3460
812.000000, 75.566, -105.0154
825.000000, 75.590, -103.5414
838.000000, 75.619, -102.0596
850.000000, 75.650, -100.6878
862.000000, 75.685, -99.2564
875.000000, 75.729, -97.6954
885.000000, 75.766, -96.4977
900.000000, 75.834, -94.6499
912.000000, 75.900, -93.1563
925.000000, 75.979, -91.5374
938.000000, 76.074, -89.9183
950.000000, 76.173, -88.4577
962.000000, 76.281, -87.0300
975.000000, 76.411, -85.5244
988.000000, 76.549, -84.0792
1000.000000, 76.680, -82.8240
1015.000000, 76.852, -81.3981
1030.000000, 77.032, -80.0684
1044.000000, 77.200, -78.8916
1060.000000, 77.391, -77.6466
1075.000000, 77.570, -76.5832
1090.000000, 77.747, -75.5908
1106.000000, 77.933, -74.5981
1120.000000, 78.091, -73.7937
1138.000000, 78.290, -72.8172
1150.000000, 78.421, -72.1984
1172.000000, 78.652, -71.1635
1180.000000, 78.733, -70.8120
1206.000000, 78.993, -69.7259
1220.000000, 79.127, -69.1704
1241.000000, 79.322, -68.3917
1250.000000, 79.405, -68.0788
1265.000000, 79.538, -67.5877
1280.000000, 79.667, -67.1231
1315.000000, 79.949, -66.1314
1320.000000, 79.987, -65.9955
1340.000000, 80.137, -65.4687
1360.000000, 80.278, -64.9572
1380.000000, 80.412, -64.4558
1400.000000, 80.541, -63.9539
1430.000000, 80.726, -63.2039
1450.000000, 80.844, -62.7141
1475.000000, 80.989, -62.0897
1500.000000, 81.132, -61.4633
1525.000000, 81.271, -60.8382
1550.000000, 81.410, -60.2216
1575.000000, 81.547, -59.6174
1600.000000, 81.685, -59.0202
1625.000000, 81.824, -58.4470
1650.000000, 81.965, -57.8864
1675.000000, 82.106, -57.3475
1700.000000, 82.246, -56.8546
1725.000000, 82.387, -56.3926
1750.000000, 82.529, -55.9604
1775.000000, 82.670, -55.5798
1800.000000, 82.810, -55.2367
1825.000000, 82.950, -54.9280
1850.000000, 83.088, -54.6612
1875.000000, 83.224, -54.4407
1900.000000, 83.359, -54.2638
1925.000000, 83.490, -54.1288
1950.000000, 83.617, -54.0411
1975.000000, 83.741, -53.9930
2000.000000, 83.860, -53.9891
2030.000000, 83.999, -54.0628
2060.000000, 84.131, -54.1868
2090.000000, 84.254, -54.3615
2120.000000, 84.367, -54.5921
2140.000000, 84.438, -54.7736
2180.000000, 84.567, -55.1991
2200.000000, 84.623, -55.4367
2240.000000, 84.721, -55.9522
2270.000000, 84.782, -56.3675
2300.000000, 84.831, -56.8009
2330.000000, 84.869, -57.2531
2360.000000, 84.895, -57.7121
2400.000000, 84.913, -58.3113
2430.000000, 84.914, -58.7519
2470.000000, 84.899, -59.3186
2500.000000, 84.876, -59.7203
2540.000000, 84.830, -60.2140
2580.000000, 84.770, -60.6428
2620.000000, 84.699, -60.9999
2650.000000, 84.639, -61.2321
2690.000000, 84.548, -61.4920
2720.000000, 84.475, -61.6356
2760.000000, 84.372, -61.7648
2800.000000, 84.266, -61.8301
2850.000000, 84.127, -61.7974
2900.000000, 83.985, -61.6705
2950.000000, 83.840, -61.4597
3000.000000, 83.694, -61.1517
3040.000000, 83.580, -60.8575
3070.000000, 83.495, -60.6160
3110.000000, 83.384, -60.2621
3150.000000, 83.275, -59.8709
3200.000000, 83.143, -59.3341
3250.000000, 83.012, -58.7672
3300.000000, 82.886, -58.1627
3350.000000, 82.764, -57.5446
3400.000000, 82.647, -56.9249
3450.000000, 82.534, -56.2994
3500.000000, 82.426, -55.6827
3550.000000, 82.317, -55.0764
3600.000000, 82.207, -54.4916
3650.000000, 82.094, -53.9321
3700.000000, 81.975, -53.3809
3750.000000, 81.849, -52.8043
3820.000000, 81.662, -51.9127
3870.000000, 81.530, -51.2083
3950.000000, 81.324, -49.9928
4000.000000, 81.201, -49.1930
4060.000000, 81.063, -48.2101
4120.000000, 80.936, -47.2378
4180.000000, 80.817, -46.3444
4250.000000, 80.677, -45.4192
4310.000000, 80.546, -44.6958
4370.000000, 80.401, -43.9614
4440.000000, 80.219, -43.0883
4500.000000, 80.054, -42.3102
4550.000000, 79.909, -41.6206
4620.000000, 79.700, -40.5831
4680.000000, 79.518, -39.6429
4750.000000, 79.300, -38.4907
4820.000000, 79.076, -37.2461
4870.000000, 78.914, -36.2955
4940.000000, 78.689, -34.8908
5000.000000, 78.496, -33.6031
5080.000000, 78.242, -31.7864
5150.000000, 78.025, -30.0904
5220.000000, 77.813, -28.2650
5300.000000, 77.581, -26.0930
5380.000000, 77.363, -23.8504
5450.000000, 77.184, -21.8086
5520.000000, 77.017, -19.6917
5600.000000, 76.840, -17.2017
5700.000000, 76.642, -14.0031
5800.000000, 76.469, -10.7527
5900.000000, 76.323, -7.4239
6000.000000, 76.202, -4.0658
6080.000000, 76.121, -1.3331
6150.000000, 76.065, 1.1076
6220.000000, 76.025, 3.5910
6300.000000, 76.000, 6.4592
6400.000000, 76.001, 10.1023
6500.000000, 76.045, 13.8266
6600.000000, 76.146, 17.6055
6700.000000, 76.306, 21.3302
6800.000000, 76.525, 24.9677
6900.000000, 76.802, 28.4776
7000.000000, 77.143, 31.8456
7100.000000, 77.558, 35.0399
7200.000000, 78.060, 37.9945
7300.000000, 78.661, 40.5632
7400.000000, 79.368, 42.5288
7500.000000, 80.185, 43.6773
7620.000000, 81.295, 43.5232
7750.000000, 82.596, 40.7089
7880.000000, 83.830, 34.3785
8000.000000, 84.657, 25.2681
8120.000000, 84.938, 14.0242
8250.000000, 84.497, 1.6861
8380.000000, 83.402, -8.3343
8500.000000, 82.070, -14.4300
8620.000000, 80.666, -17.5938
8750.000000, 79.232, -18.4460
8850.000000, 78.240, -17.8280
9000.000000, 76.950, -15.5507
9120.000000, 76.079, -12.9735
9250.000000, 75.278, -9.7408
9380.000000, 74.609, -6.2179
9500.000000, 74.098, -2.8464
9620.000000, 73.682, 0.5458
9750.000000, 73.329, 4.2387
9880.000000, 73.070, 7.8464
10000.000000, 72.906, 11.0274
10150.000000, 72.802, 14.7200
10300.000000, 72.801, 18.0226
10440.000000, 72.883, 20.6339
10600.000000, 73.062, 22.8768
10750.000000, 73.287, 24.1499
10900.000000, 73.535, 24.4700
11060.000000, 73.777, 23.6533
11200.000000, 73.923, 22.0050
11380.000000, 73.952, 18.8560
11500.000000, 73.842, 16.3180
11720.000000, 73.341, 11.7081
11800.000000, 73.072, 10.2600
12060.000000, 71.995, 6.8547
12200.000000, 71.337, 5.8544
12410.000000, 70.298, 5.4091
12500.000000, 69.854, 5.5979
12650.000000, 69.147, 6.2159
12800.000000, 68.451, 6.6065
13150.000000, 66.033, 10.3746
13200.000000, 65.650, 12.5325
13400.000000, 64.698, 23.0500
13600.000000, 64.455, 32.0727
13800.000000, 64.500, 39.5239
14000.000000, 64.795, 46.5864
14300.000000, 65.857, 54.6844
14500.000000, 66.819, 56.6540
14750.000000, 67.970, 55.2442
15000.000000, 68.897, 50.7628
15250.000000, 69.546, 44.0628
15500.000000, 69.901, 35.7860
15750.000000, 69.911, 26.4116
16000.000000, 69.538, 16.6490
16250.000000, 68.801, 7.2867
16500.000000, 67.781, -1.0885
16750.000000, 66.555, -8.2766
17000.000000, 65.160, -14.3444
17250.000000, 63.651, -19.6802
17500.000000, 62.003, -24.8361
17750.000000, 60.090, -29.2850
18000.000000, 57.974, -32.5841
18250.000000, 55.675, -35.6171
18500.000000, 52.986, -38.5514
18750.000000, 49.700, -38.8844
19000.000000, 46.081, -33.3607
19250.000000, 42.767, -24.3084
19500.000000, 40.053, -17.0680
19750.000000, 37.999, -13.7885
