* Measurement data measured by REW V5.40 beta 102
* Source: Input device not selected, no input selected, L, volume: no control
* Format: 256k Log Swept Sine, 1 sweep at -11.0 dBFS with no timing reference
* Dated: Oct 9, 2025 7:36:06 PM
* REW Settings:
*  C-weighting compensation: Off
*  Target level: 75.0 dB
* Note: ; 
* Measurement: Pandamon 2 (Stock Wide M) L
* Smoothing: 1/24 octave
* Frequency Step: 1/48 octave
* Start Frequency: 20.300 Hz
*
* Freq(Hz), SPL(dB), Phase(degrees)
20.299999, 80.007, -155.8865
20.600000, 80.014, -156.2215
20.900000, 80.019, -156.6007
21.200001, 80.021, -156.9687
21.400000, 80.023, -157.1979
21.799999, 80.030, -157.6088
22.000000, 80.036, -157.7922
22.400000, 80.050, -158.1298
22.700001, 80.060, -158.3708
23.000000, 80.070, -158.6103
23.299999, 80.079, -158.8510
23.600000, 80.088, -159.0934
24.000000, 80.104, -159.4227
24.299999, 80.120, -159.6798
24.700001, 80.145, -160.0444
25.000000, 80.164, -160.3333
25.400000, 80.181, -160.7236
25.799999, 80.188, -161.0920
26.200001, 80.186, -161.4141
26.500000, 80.182, -161.6218
26.900000, 80.180, -161.8651
27.200001, 80.182, -162.0342
27.600000, 80.191, -162.2561
28.000000, 80.205, -162.4809
28.500000, 80.224, -162.7676
29.000000, 80.238, -163.0606
29.500000, 80.243, -163.3598
30.000000, 80.243, -163.6603
30.400000, 80.243, -163.9002
30.700001, 80.246, -164.0826
31.100000, 80.254, -164.3344
31.500000, 80.264, -164.5965
32.000000, 80.275, -164.9222
32.500000, 80.281, -165.2181
33.000000, 80.286, -165.4763
33.500000, 80.291, -165.7180
34.000000, 80.295, -165.9616
34.500000, 80.294, -166.2000
35.000000, 80.290, -166.4254
35.500000, 80.289, -166.6609
36.000000, 80.291, -166.9391
36.500000, 80.293, -167.2486
37.000000, 80.291, -167.5238
37.500000, 80.286, -167.7039
38.200001, 80.277, -167.8220
38.700001, 80.266, -167.8977
39.500000, 80.239, -168.1167
40.000000, 80.228, -168.2990
40.599998, 80.233, -168.5251
41.200001, 80.255, -168.7378
41.799999, 80.279, -168.9290
42.500000, 80.291, -169.1352
43.099998, 80.288, -169.3149
43.700001, 80.282, -169.5011
44.400002, 80.276, -169.7130
45.000000, 80.269, -169.8787
45.500000, 80.261, -170.0025
46.200001, 80.251, -170.1662
46.799999, 80.250, -170.3200
47.500000, 80.256, -170.5173
48.200001, 80.258, -170.6910
48.700001, 80.255, -170.7921
49.400002, 80.248, -170.9430
50.000000, 80.240, -171.1083
50.799999, 80.230, -171.3393
51.500000, 80.222, -171.4998
52.200001, 80.213, -171.6213
53.000000, 80.200, -171.7469
53.799999, 80.189, -171.8998
54.500000, 80.181, -172.0586
55.200001, 80.175, -172.2108
56.000000, 80.173, -172.3615
57.000000, 80.169, -172.5351
58.000000, 80.155, -172.7401
59.000000, 80.142, -173.0201
60.000000, 80.142, -173.2275
60.799999, 80.142, -173.2909
61.500000, 80.128, -173.3184
62.200001, 80.109, -173.3607
63.000000, 80.101, -173.4697
64.000000, 80.106, -173.6515
65.000000, 80.097, -173.7559
66.000000, 80.076, -173.8671
67.000000, 80.061, -174.0848
68.000000, 80.044, -174.2801
69.000000, 80.027, -174.4009
70.000000, 80.013, -174.5332
71.000000, 79.999, -174.6337
72.000000, 79.985, -174.7069
73.000000, 79.972, -174.8179
74.000000, 79.963, -174.9200
75.000000, 79.954, -175.0457
76.199997, 79.938, -175.2434
77.500000, 79.921, -175.3374
78.800003, 79.897, -175.3762
80.000000, 79.870, -175.4732
81.199997, 79.853, -175.5441
82.500000, 79.837, -175.6168
83.800003, 79.820, -175.7584
85.000000, 79.804, -175.8859
86.199997, 79.785, -175.9928
87.500000, 79.766, -176.0963
88.500000, 79.752, -176.1354
90.000000, 79.731, -176.1779
91.199997, 79.718, -176.2559
92.500000, 79.705, -176.2989
93.800003, 79.679, -176.3544
95.000000, 79.648, -176.4482
96.199997, 79.624, -176.5394
97.500000, 79.601, -176.6050
98.800003, 79.580, -176.6698
100.000000, 79.561, -176.7055
101.500000, 79.543, -176.7260
103.000000, 79.516, -176.8025
104.400002, 79.488, -176.8716
106.000000, 79.465, -176.9245
107.500000, 79.441, -176.9575
109.000000, 79.417, -176.9836
110.599998, 79.391, -177.0190
112.000000, 79.366, -177.0708
113.800003, 79.331, -177.0587
115.000000, 79.311, -177.0539
117.199997, 79.277, -177.0750
118.000000, 79.266, -177.0927
120.599998, 79.218, -177.0717
122.000000, 79.188, -177.0503
124.099998, 79.151, -177.0762
125.000000, 79.137, -177.0755
126.500000, 79.110, -177.0534
128.000000, 79.080, -177.0332
131.500000, 79.028, -177.0106
132.000000, 79.021, -177.0008
134.000000, 78.988, -176.9504
136.000000, 78.951, -176.9296
138.000000, 78.915, -176.9129
140.000000, 78.871, -176.8973
143.000000, 78.799, -176.8148
145.000000, 78.783, -176.6891
147.500000, 78.755, -176.6397
150.000000, 78.711, -176.5667
152.500000, 78.663, -176.4489
155.000000, 78.620, -176.3653
157.500000, 78.577, -176.2955
160.000000, 78.532, -176.1926
162.500000, 78.494, -176.1019
165.000000, 78.454, -175.9691
167.500000, 78.414, -175.8350
170.000000, 78.369, -175.7145
172.500000, 78.328, -175.5690
175.000000, 78.288, -175.3891
177.500000, 78.244, -175.2454
180.000000, 78.198, -175.0936
182.500000, 78.157, -174.9149
185.000000, 78.121, -174.7783
187.500000, 78.084, -174.6692
190.000000, 78.040, -174.5051
192.500000, 77.997, -174.2860
195.000000, 77.957, -174.0838
197.500000, 77.916, -173.9150
200.000000, 77.876, -173.7424
203.000000, 77.835, -173.5096
206.000000, 77.791, -173.2601
209.000000, 77.743, -173.0172
212.000000, 77.696, -172.7549
214.000000, 77.667, -172.5893
218.000000, 77.607, -172.2925
220.000000, 77.576, -172.1274
224.000000, 77.519, -171.7377
227.000000, 77.476, -171.4839
230.000000, 77.434, -171.2466
233.000000, 77.390, -170.9638
236.000000, 77.345, -170.6695
240.000000, 77.288, -170.3056
243.000000, 77.246, -170.0141
247.000000, 77.187, -169.6124
250.000000, 77.147, -169.3177
254.000000, 77.097, -168.9051
258.000000, 77.040, -168.4945
262.000000, 76.980, -168.0747
265.000000, 76.937, -167.7590
269.000000, 76.885, -167.3184
272.000000, 76.849, -166.9675
276.000000, 76.799, -166.4851
280.000000, 76.745, -165.9782
285.000000, 76.684, -165.3182
290.000000, 76.626, -164.6511
295.000000, 76.569, -163.9536
300.000000, 76.525, -163.1917
304.000000, 76.503, -162.5901
307.000000, 76.488, -162.1870
311.000000, 76.471, -161.6914
315.000000, 76.455, -161.2264
320.000000, 76.435, -160.6659
325.000000, 76.414, -160.1264
330.000000, 76.386, -159.6033
335.000000, 76.356, -159.1010
340.000000, 76.327, -158.5960
345.000000, 76.295, -158.0917
350.000000, 76.256, -157.5933
355.000000, 76.218, -157.0744
360.000000, 76.188, -156.5188
365.000000, 76.156, -155.9819
370.000000, 76.121, -155.4390
375.000000, 76.084, -154.8692
382.000000, 76.037, -154.0773
387.000000, 76.007, -153.5415
395.000000, 75.959, -152.6615
400.000000, 75.930, -152.0673
406.000000, 75.895, -151.3575
412.000000, 75.862, -150.6696
418.000000, 75.830, -149.9371
425.000000, 75.790, -149.1076
431.000000, 75.758, -148.4139
437.000000, 75.729, -147.7240
444.000000, 75.695, -146.9014
450.000000, 75.668, -146.1648
455.000000, 75.648, -145.5352
462.000000, 75.621, -144.6562
468.000000, 75.600, -143.9113
475.000000, 75.580, -143.0775
482.000000, 75.565, -142.2509
487.000000, 75.554, -141.6635
494.000000, 75.535, -140.8636
500.000000, 75.520, -140.1673
508.000000, 75.507, -139.2656
515.000000, 75.493, -138.5070
522.000000, 75.478, -137.7301
530.000000, 75.463, -136.8251
538.000000, 75.448, -135.9194
545.000000, 75.436, -135.1258
552.000000, 75.422, -134.3517
560.000000, 75.406, -133.4517
570.000000, 75.391, -132.3249
580.000000, 75.374, -131.2078
590.000000, 75.364, -130.1018
600.000000, 75.355, -128.9818
608.000000, 75.347, -128.0790
615.000000, 75.342, -127.2873
622.000000, 75.337, -126.4869
630.000000, 75.332, -125.5819
640.000000, 75.328, -124.4693
650.000000, 75.329, -123.3375
660.000000, 75.330, -122.2044
670.000000, 75.333, -121.1013
680.000000, 75.336, -120.0005
690.000000, 75.343, -118.8521
700.000000, 75.350, -117.7087
710.000000, 75.359, -116.5981
720.000000, 75.370, -115.4591
730.000000, 75.385, -114.3271
740.000000, 75.398, -113.2115
750.000000, 75.413, -112.0970
762.000000, 75.436, -110.7539
775.000000, 75.470, -109.3221
788.000000, 75.502, -107.8833
800.000000, 75.534, -106.5688
812.000000, 75.572, -105.2851
825.000000, 75.613, -103.8897
838.000000, 75.655, -102.4822
850.000000, 75.693, -101.2095
862.000000, 75.731, -99.9291
875.000000, 75.776, -98.5471
885.000000, 75.815, -97.4709
900.000000, 75.875, -95.8235
912.000000, 75.927, -94.5088
925.000000, 75.988, -93.0716
938.000000, 76.054, -91.6155
950.000000, 76.120, -90.2716
962.000000, 76.194, -88.9079
975.000000, 76.282, -87.4201
988.000000, 76.380, -85.9198
1000.000000, 76.481, -84.5573
1015.000000, 76.619, -82.9916
1030.000000, 76.771, -81.4549
1044.000000, 76.922, -80.0542
1060.000000, 77.107, -78.5456
1075.000000, 77.287, -77.2358
1090.000000, 77.468, -76.0264
1106.000000, 77.665, -74.8368
1120.000000, 77.839, -73.8840
1138.000000, 78.059, -72.7583
1150.000000, 78.202, -72.0840
1172.000000, 78.457, -71.0010
1180.000000, 78.548, -70.6369
1206.000000, 78.832, -69.5188
1220.000000, 78.981, -68.9693
1241.000000, 79.194, -68.1997
1250.000000, 79.282, -67.8965
1265.000000, 79.425, -67.4341
1280.000000, 79.561, -67.0038
1315.000000, 79.858, -66.0709
1320.000000, 79.899, -65.9444
1340.000000, 80.054, -65.4584
1360.000000, 80.201, -64.9862
1380.000000, 80.339, -64.5259
1400.000000, 80.469, -64.0779
1430.000000, 80.657, -63.3769
1450.000000, 80.777, -62.9030
1475.000000, 80.920, -62.3138
1500.000000, 81.062, -61.7041
1525.000000, 81.202, -61.0911
1550.000000, 81.342, -60.4689
1575.000000, 81.481, -59.8749
1600.000000, 81.622, -59.2993
1625.000000, 81.764, -58.7348
1650.000000, 81.904, -58.1862
1675.000000, 82.046, -57.6627
1700.000000, 82.189, -57.1645
1725.000000, 82.333, -56.7022
1750.000000, 82.477, -56.2784
1775.000000, 82.621, -55.8932
1800.000000, 82.765, -55.5502
1825.000000, 82.910, -55.2496
1850.000000, 83.052, -54.9925
1875.000000, 83.194, -54.7823
1900.000000, 83.334, -54.6211
1925.000000, 83.471, -54.4961
1950.000000, 83.607, -54.4159
1975.000000, 83.740, -54.3925
2000.000000, 83.867, -54.4246
2030.000000, 84.014, -54.5417
2060.000000, 84.155, -54.7194
2090.000000, 84.288, -54.9591
2120.000000, 84.410, -55.2589
2140.000000, 84.486, -55.4943
2180.000000, 84.624, -56.0419
2200.000000, 84.686, -56.3515
2240.000000, 84.796, -57.0205
2270.000000, 84.861, -57.5546
2300.000000, 84.915, -58.1194
2330.000000, 84.956, -58.7064
2360.000000, 84.983, -59.3025
2400.000000, 84.998, -60.1022
2430.000000, 84.994, -60.6949
2470.000000, 84.970, -61.4585
2500.000000, 84.939, -62.0052
2540.000000, 84.881, -62.6912
2580.000000, 84.803, -63.3161
2620.000000, 84.710, -63.8643
2650.000000, 84.632, -64.2188
2690.000000, 84.516, -64.6272
2720.000000, 84.423, -64.8785
2760.000000, 84.291, -65.1342
2800.000000, 84.151, -65.2991
2850.000000, 83.970, -65.3836
2900.000000, 83.785, -65.3502
2950.000000, 83.596, -65.1879
3000.000000, 83.405, -64.9011
3040.000000, 83.255, -64.6099
3070.000000, 83.143, -64.3508
3110.000000, 82.996, -63.9541
3150.000000, 82.851, -63.5184
3200.000000, 82.676, -62.9066
3250.000000, 82.503, -62.2266
3300.000000, 82.336, -61.4873
3350.000000, 82.176, -60.7072
3400.000000, 82.022, -59.8964
3450.000000, 81.871, -59.0456
3500.000000, 81.726, -58.1749
3550.000000, 81.587, -57.2862
3600.000000, 81.455, -56.3797
3650.000000, 81.327, -55.4609
3700.000000, 81.203, -54.5339
3750.000000, 81.083, -53.6165
3820.000000, 80.921, -52.3555
3870.000000, 80.808, -51.4500
3950.000000, 80.632, -49.9981
4000.000000, 80.524, -49.1033
4060.000000, 80.399, -48.0466
4120.000000, 80.273, -46.9981
4180.000000, 80.148, -45.9657
4250.000000, 80.002, -44.7675
4310.000000, 79.874, -43.7591
4370.000000, 79.745, -42.7490
4440.000000, 79.591, -41.5611
4500.000000, 79.456, -40.5407
4550.000000, 79.342, -39.6885
4620.000000, 79.182, -38.4740
4680.000000, 79.040, -37.4054
4750.000000, 78.869, -36.1139
4820.000000, 78.697, -34.7966
4870.000000, 78.574, -33.8393
4940.000000, 78.399, -32.4569
5000.000000, 78.248, -31.2288
5080.000000, 78.049, -29.5096
5150.000000, 77.874, -27.9389
5220.000000, 77.702, -26.3159
5300.000000, 77.512, -24.3800
5380.000000, 77.329, -22.3361
5450.000000, 77.175, -20.5001
5520.000000, 77.026, -18.6204
5600.000000, 76.863, -16.4169
5700.000000, 76.679, -13.5747
5800.000000, 76.518, -10.6449
5900.000000, 76.373, -7.6215
6000.000000, 76.250, -4.4958
6080.000000, 76.168, -1.9335
6150.000000, 76.111, 0.3428
6220.000000, 76.070, 2.6713
6300.000000, 76.046, 5.4093
6400.000000, 76.058, 8.9015
6500.000000, 76.118, 12.3801
6600.000000, 76.227, 15.8149
6700.000000, 76.386, 19.2068
6800.000000, 76.599, 22.5270
6900.000000, 76.875, 25.7206
7000.000000, 77.215, 28.7580
7100.000000, 77.623, 31.5887
7200.000000, 78.110, 34.1179
7300.000000, 78.687, 36.2173
7400.000000, 79.356, 37.7775
7500.000000, 80.121, 38.5984
7620.000000, 81.168, 38.2286
7750.000000, 82.431, 35.4272
7880.000000, 83.696, 29.1431
8000.000000, 84.611, 19.6870
8120.000000, 84.972, 7.4316
8250.000000, 84.527, -6.4845
8380.000000, 83.312, -18.0425
8500.000000, 81.801, -25.2079
8620.000000, 80.201, -29.0937
8750.000000, 78.552, -30.4719
8850.000000, 77.399, -30.1388
9000.000000, 75.874, -28.1521
9120.000000, 74.817, -25.7268
9250.000000, 73.813, -22.6098
9380.000000, 72.944, -19.1613
9500.000000, 72.249, -15.7837
9620.000000, 71.635, -12.3283
9750.000000, 71.055, -8.4991
9880.000000, 70.567, -4.6492
10000.000000, 70.191, -1.1879
10150.000000, 69.788, 2.8823
10300.000000, 69.441, 6.7397
10440.000000, 69.169, 10.2665
10600.000000, 68.922, 14.1232
10750.000000, 68.759, 17.5084
10900.000000, 68.656, 20.6176
11060.000000, 68.585, 23.5399
11200.000000, 68.550, 25.6917
11380.000000, 68.520, 27.8048
11500.000000, 68.490, 28.8354
11720.000000, 68.354, 30.2771
11800.000000, 68.278, 30.8138
12060.000000, 68.034, 32.5076
12200.000000, 67.904, 33.1643
12410.000000, 67.694, 33.7313
12500.000000, 67.600, 33.7708
12650.000000, 67.419, 33.3936
12800.000000, 67.146, 32.1127
13150.000000, 65.226, 30.6536
13200.000000, 64.855, 32.1106
13400.000000, 63.873, 40.4666
13600.000000, 63.543, 48.0978
13800.000000, 63.446, 54.7197
14000.000000, 63.559, 61.5141
14300.000000, 64.398, 70.7634
14500.000000, 65.313, 74.1595
14750.000000, 66.523, 74.8192
15000.000000, 67.648, 72.4762
15250.000000, 68.701, 67.8306
15500.000000, 69.722, 60.6852
15750.000000, 70.638, 50.1280
16000.000000, 71.158, 35.5078
16250.000000, 70.855, 17.9526
16500.000000, 69.536, 0.8116
16750.000000, 67.414, -12.9569
17000.000000, 64.878, -22.7470
17250.000000, 62.175, -29.3654
17500.000000, 59.355, -34.1181
17750.000000, 56.270, -37.1152
18000.000000, 52.850, -37.3629
18250.000000, 49.136, -34.3525
18500.000000, 45.171, -26.6688
18750.000000, 41.277, -9.9965
19000.000000, 38.187, 19.8372
19250.000000, 36.695, 48.6851
19500.000000, 36.306, 61.8469
19750.000000, 36.550, 64.9011
