* Measurement data measured by REW V5.31.3
* Source: Input device not selected, no input selected, L, volume: no control
* Format: 256k Log Swept Sine, 1 sweep at -11.0 dBFS with no timing reference
* Dated: Feb 28, 2025 8:33:22 PM
* REW Settings:
*  C-weighting compensation: Off
*  Target level: 75.0 dB
* Note: 
* Measurement: ND Planet (Stock M) L
* Smoothing: 1/24 octave
* Frequency Step: 1/48 octave
* Start Frequency: 20.300 Hz
*
* Freq(Hz), SPL(dB), Phase(degrees)
20.299999, 99.419, -168.6978
20.600000, 99.417, -169.0859
20.900000, 99.408, -169.5331
21.200001, 99.396, -169.9852
21.400000, 99.387, -170.2784
21.799999, 99.374, -170.8226
22.000000, 99.371, -171.0691
22.400000, 99.377, -171.5219
22.700001, 99.390, -171.8510
23.000000, 99.407, -172.1973
23.299999, 99.420, -172.5751
23.600000, 99.426, -172.9831
24.000000, 99.416, -173.5448
24.299999, 99.397, -173.9506
24.700001, 99.364, -174.4411
25.000000, 99.341, -174.7703
25.400000, 99.319, -175.1812
25.799999, 99.307, -175.5942
26.200001, 99.302, -176.0267
26.500000, 99.297, -176.3587
26.900000, 99.287, -176.7939
27.200001, 99.278, -177.1059
27.600000, 99.264, -177.5017
28.000000, 99.249, -177.8848
28.500000, 99.233, -178.3611
29.000000, 99.216, -178.8345
29.500000, 99.198, -179.2922
30.000000, 99.180, -179.7292
30.400000, 99.166, 179.9316
30.700001, 99.155, 179.6805
31.100000, 99.140, 179.3484
31.500000, 99.125, 179.0186
32.000000, 99.105, 178.6088
32.500000, 99.082, 178.2039
33.000000, 99.057, 177.8115
33.500000, 99.031, 177.4375
34.000000, 99.008, 177.0745
34.500000, 98.988, 176.7053
35.000000, 98.971, 176.3227
35.500000, 98.951, 175.9423
36.000000, 98.928, 175.5878
36.500000, 98.903, 175.2664
37.000000, 98.880, 174.9617
37.500000, 98.859, 174.6524
38.200001, 98.827, 174.2021
38.700001, 98.803, 173.8790
39.500000, 98.762, 173.3756
40.000000, 98.736, 173.0700
40.599998, 98.706, 172.7144
41.200001, 98.677, 172.3721
41.799999, 98.648, 172.0411
42.500000, 98.613, 171.6710
43.099998, 98.582, 171.3680
43.700001, 98.551, 171.0662
44.400002, 98.513, 170.7036
45.000000, 98.480, 170.3962
45.500000, 98.454, 170.1498
46.200001, 98.424, 169.8029
46.799999, 98.400, 169.4946
47.500000, 98.366, 169.1579
48.200001, 98.326, 168.8803
48.700001, 98.295, 168.6964
49.400002, 98.253, 168.4059
50.000000, 98.217, 168.1253
50.799999, 98.170, 167.7704
51.500000, 98.130, 167.5086
52.200001, 98.088, 167.2664
53.000000, 98.040, 166.9779
53.799999, 97.996, 166.6761
54.500000, 97.960, 166.4148
55.200001, 97.921, 166.1688
56.000000, 97.873, 165.9088
57.000000, 97.821, 165.5877
58.000000, 97.768, 165.2974
59.000000, 97.710, 165.0357
60.000000, 97.658, 164.6595
60.799999, 97.617, 164.3264
61.500000, 97.580, 164.0850
62.200001, 97.539, 163.8711
63.000000, 97.487, 163.6226
64.000000, 97.432, 163.3557
65.000000, 97.395, 163.1587
66.000000, 97.350, 162.9583
67.000000, 97.290, 162.7299
68.000000, 97.228, 162.5001
69.000000, 97.168, 162.3138
70.000000, 97.111, 162.1679
71.000000, 97.061, 161.9889
72.000000, 97.013, 161.7623
73.000000, 96.959, 161.5367
74.000000, 96.906, 161.3208
75.000000, 96.857, 161.0895
76.199997, 96.792, 160.8484
77.500000, 96.716, 160.7230
78.800003, 96.641, 160.5555
80.000000, 96.571, 160.3232
81.199997, 96.507, 160.1124
82.500000, 96.437, 159.9301
83.800003, 96.368, 159.7981
85.000000, 96.308, 159.6756
86.199997, 96.247, 159.5343
87.500000, 96.177, 159.3940
88.500000, 96.122, 159.2994
90.000000, 96.047, 159.1471
91.199997, 95.988, 159.0388
92.500000, 95.924, 158.9415
93.800003, 95.859, 158.8540
95.000000, 95.798, 158.7715
96.199997, 95.738, 158.6810
97.500000, 95.673, 158.5867
98.800003, 95.608, 158.5001
100.000000, 95.550, 158.4371
101.500000, 95.478, 158.3817
103.000000, 95.406, 158.3179
104.400002, 95.341, 158.2562
106.000000, 95.267, 158.1982
107.500000, 95.197, 158.1609
109.000000, 95.126, 158.1217
110.599998, 95.052, 158.0947
112.000000, 94.987, 158.0811
113.800003, 94.902, 158.0511
115.000000, 94.846, 158.0352
117.199997, 94.745, 158.0036
118.000000, 94.708, 157.9847
120.599998, 94.594, 157.9579
122.000000, 94.536, 157.9821
124.099998, 94.443, 158.0329
125.000000, 94.402, 158.0621
126.500000, 94.335, 158.1159
128.000000, 94.271, 158.1680
131.500000, 94.121, 158.2418
132.000000, 94.099, 158.2472
134.000000, 94.011, 158.2889
136.000000, 93.929, 158.3452
138.000000, 93.848, 158.4247
140.000000, 93.760, 158.5316
143.000000, 93.626, 158.7627
145.000000, 93.538, 158.8873
147.500000, 93.436, 159.0101
150.000000, 93.335, 159.1157
152.500000, 93.224, 159.3058
155.000000, 93.107, 159.6241
157.500000, 92.992, 159.9047
160.000000, 92.876, 160.2429
162.500000, 92.758, 160.7070
165.000000, 92.640, 161.2530
167.500000, 92.521, 161.9677
170.000000, 92.430, 162.8649
172.500000, 92.386, 163.8188
175.000000, 92.385, 164.6102
177.500000, 92.420, 165.2312
180.000000, 92.465, 165.6722
182.500000, 92.503, 165.8264
185.000000, 92.516, 165.7531
187.500000, 92.502, 165.6609
190.000000, 92.472, 165.5950
192.500000, 92.428, 165.5367
195.000000, 92.378, 165.5094
197.500000, 92.322, 165.4986
200.000000, 92.263, 165.5478
203.000000, 92.196, 165.6710
206.000000, 92.126, 165.7995
209.000000, 92.054, 165.9520
212.000000, 91.980, 166.1191
214.000000, 91.931, 166.2539
218.000000, 91.833, 166.5197
220.000000, 91.784, 166.6502
224.000000, 91.687, 166.9688
227.000000, 91.619, 167.2194
230.000000, 91.553, 167.4675
233.000000, 91.485, 167.7361
236.000000, 91.418, 168.0156
240.000000, 91.328, 168.4280
243.000000, 91.265, 168.7418
247.000000, 91.179, 169.1417
250.000000, 91.116, 169.4487
254.000000, 91.040, 169.8726
258.000000, 90.962, 170.3145
262.000000, 90.886, 170.7686
265.000000, 90.831, 171.1163
269.000000, 90.757, 171.5856
272.000000, 90.702, 171.9352
276.000000, 90.633, 172.3958
280.000000, 90.567, 172.8702
285.000000, 90.487, 173.4998
290.000000, 90.410, 174.1217
295.000000, 90.339, 174.7589
300.000000, 90.274, 175.3882
304.000000, 90.228, 175.8863
307.000000, 90.196, 176.2457
311.000000, 90.156, 176.6929
315.000000, 90.114, 177.1230
320.000000, 90.056, 177.6447
325.000000, 89.997, 178.1392
330.000000, 89.937, 178.6514
335.000000, 89.876, 179.1672
340.000000, 89.819, 179.6917
345.000000, 89.761, -179.7671
350.000000, 89.705, -179.2337
355.000000, 89.649, -178.6875
360.000000, 89.593, -178.1325
365.000000, 89.541, -177.5678
370.000000, 89.489, -177.0051
375.000000, 89.437, -176.4417
382.000000, 89.367, -175.6423
387.000000, 89.318, -175.0757
395.000000, 89.242, -174.1587
400.000000, 89.197, -173.5746
406.000000, 89.142, -172.8672
412.000000, 89.088, -172.1506
418.000000, 89.040, -171.4011
425.000000, 88.987, -170.5007
431.000000, 88.947, -169.7109
437.000000, 88.917, -168.9135
444.000000, 88.892, -168.0355
450.000000, 88.876, -167.3439
455.000000, 88.862, -166.7837
462.000000, 88.842, -166.0053
468.000000, 88.825, -165.3396
475.000000, 88.808, -164.5990
482.000000, 88.798, -163.9151
487.000000, 88.790, -163.4488
494.000000, 88.775, -162.8137
500.000000, 88.758, -162.2791
508.000000, 88.728, -161.5667
515.000000, 88.701, -160.9295
522.000000, 88.674, -160.2918
530.000000, 88.644, -159.5540
538.000000, 88.614, -158.7924
545.000000, 88.592, -158.1221
552.000000, 88.570, -157.4516
560.000000, 88.546, -156.6805
570.000000, 88.517, -155.7172
580.000000, 88.489, -154.7682
590.000000, 88.465, -153.8271
600.000000, 88.445, -152.8948
608.000000, 88.429, -152.1530
615.000000, 88.417, -151.5126
622.000000, 88.406, -150.8729
630.000000, 88.393, -150.1451
640.000000, 88.376, -149.2590
650.000000, 88.357, -148.4088
660.000000, 88.332, -147.5937
670.000000, 88.290, -146.7839
680.000000, 88.228, -145.8779
690.000000, 88.160, -144.6677
700.000000, 88.132, -143.1232
710.000000, 88.166, -141.6640
720.000000, 88.224, -140.5211
730.000000, 88.274, -139.5728
740.000000, 88.312, -138.6893
750.000000, 88.342, -137.8069
762.000000, 88.373, -136.7494
775.000000, 88.407, -135.5972
788.000000, 88.441, -134.4420
800.000000, 88.475, -133.3901
812.000000, 88.510, -132.3394
825.000000, 88.553, -131.1912
838.000000, 88.601, -130.0430
850.000000, 88.649, -128.9984
862.000000, 88.700, -127.9649
875.000000, 88.758, -126.8651
885.000000, 88.806, -126.0239
900.000000, 88.885, -124.7723
912.000000, 88.952, -123.7879
925.000000, 89.030, -122.7541
938.000000, 89.111, -121.7528
950.000000, 89.189, -120.8453
962.000000, 89.271, -119.9558
975.000000, 89.363, -119.0263
988.000000, 89.458, -118.1383
1000.000000, 89.549, -117.3476
1015.000000, 89.667, -116.3882
1030.000000, 89.788, -115.4794
1044.000000, 89.902, -114.6758
1060.000000, 90.035, -113.8069
1075.000000, 90.161, -113.0428
1090.000000, 90.286, -112.3304
1106.000000, 90.420, -111.6193
1120.000000, 90.536, -111.0375
1138.000000, 90.685, -110.3339
1150.000000, 90.785, -109.8948
1172.000000, 90.964, -109.1525
1180.000000, 91.028, -108.9020
1206.000000, 91.231, -108.1518
1220.000000, 91.338, -107.7867
1241.000000, 91.496, -107.2715
1250.000000, 91.563, -107.0627
1265.000000, 91.671, -106.7342
1280.000000, 91.777, -106.4285
1315.000000, 92.019, -105.7880
1320.000000, 92.054, -105.7036
1340.000000, 92.187, -105.3783
1360.000000, 92.317, -105.0771
1380.000000, 92.446, -104.7967
1400.000000, 92.573, -104.5354
1430.000000, 92.760, -104.1861
1450.000000, 92.883, -103.9838
1475.000000, 93.034, -103.7548
1500.000000, 93.182, -103.5544
1525.000000, 93.330, -103.3878
1550.000000, 93.477, -103.2570
1575.000000, 93.622, -103.1601
1600.000000, 93.765, -103.1001
1625.000000, 93.907, -103.0780
1650.000000, 94.047, -103.0959
1675.000000, 94.186, -103.1521
1700.000000, 94.322, -103.2448
1725.000000, 94.457, -103.3776
1750.000000, 94.588, -103.5496
1775.000000, 94.718, -103.7612
1800.000000, 94.844, -104.0124
1825.000000, 94.966, -104.3059
1850.000000, 95.086, -104.6395
1875.000000, 95.202, -105.0114
1900.000000, 95.313, -105.4237
1925.000000, 95.420, -105.8749
1950.000000, 95.521, -106.3646
1975.000000, 95.616, -106.8866
2000.000000, 95.706, -107.4339
2030.000000, 95.806, -108.1293
2060.000000, 95.898, -108.8686
2090.000000, 95.980, -109.6448
2120.000000, 96.052, -110.4502
2140.000000, 96.094, -111.0004
2180.000000, 96.164, -112.1215
2200.000000, 96.192, -112.6895
2240.000000, 96.233, -113.8260
2270.000000, 96.252, -114.6722
2300.000000, 96.262, -115.5041
2330.000000, 96.263, -116.3168
2360.000000, 96.255, -117.1032
2400.000000, 96.232, -118.0992
2430.000000, 96.209, -118.8083
2470.000000, 96.170, -119.6990
2500.000000, 96.136, -120.3237
2540.000000, 96.086, -121.1035
2580.000000, 96.031, -121.8233
2620.000000, 95.974, -122.4848
2650.000000, 95.930, -122.9404
2690.000000, 95.872, -123.5004
2720.000000, 95.830, -123.8904
2760.000000, 95.774, -124.3724
2800.000000, 95.721, -124.8191
2850.000000, 95.657, -125.3322
2900.000000, 95.600, -125.7991
2950.000000, 95.549, -126.2400
3000.000000, 95.505, -126.6671
3040.000000, 95.474, -127.0003
3070.000000, 95.455, -127.2527
3110.000000, 95.433, -127.5948
3150.000000, 95.415, -127.9442
3200.000000, 95.400, -128.4032
3250.000000, 95.391, -128.8952
3300.000000, 95.387, -129.4302
3350.000000, 95.389, -130.0111
3400.000000, 95.395, -130.6487
3450.000000, 95.404, -131.3592
3500.000000, 95.414, -132.1403
3550.000000, 95.425, -132.9953
3600.000000, 95.434, -133.9395
3650.000000, 95.440, -134.9709
3700.000000, 95.441, -136.0854
3750.000000, 95.434, -137.2799
3820.000000, 95.411, -139.1046
3870.000000, 95.378, -140.5187
3950.000000, 95.290, -142.8917
4000.000000, 95.214, -144.4238
4060.000000, 95.096, -146.2821
4120.000000, 94.951, -148.1273
4180.000000, 94.782, -149.9442
4250.000000, 94.555, -152.0040
4310.000000, 94.335, -153.7078
4370.000000, 94.093, -155.3289
4440.000000, 93.783, -157.0726
4500.000000, 93.495, -158.4186
4550.000000, 93.242, -159.4221
4620.000000, 92.873, -160.6270
4680.000000, 92.546, -161.4595
4750.000000, 92.158, -162.1845
4820.000000, 91.770, -162.6429
4870.000000, 91.496, -162.8089
4940.000000, 91.124, -162.8244
5000.000000, 90.818, -162.6499
5080.000000, 90.437, -162.1833
5150.000000, 90.133, -161.5907
5220.000000, 89.858, -160.8691
5300.000000, 89.582, -159.9246
5380.000000, 89.346, -158.8980
5450.000000, 89.171, -157.9602
5520.000000, 89.026, -157.0107
5600.000000, 88.894, -155.9422
5700.000000, 88.779, -154.6779
5800.000000, 88.717, -153.5212
5900.000000, 88.702, -152.5039
6000.000000, 88.727, -151.6630
6080.000000, 88.772, -151.1168
6150.000000, 88.830, -150.7279
6220.000000, 88.907, -150.4250
6300.000000, 89.019, -150.1955
6400.000000, 89.196, -150.1158
6500.000000, 89.416, -150.3100
6600.000000, 89.682, -150.8492
6700.000000, 89.992, -151.8494
6800.000000, 90.337, -153.4346
6900.000000, 90.701, -155.7096
7000.000000, 91.054, -158.7578
7100.000000, 91.362, -162.5962
7200.000000, 91.589, -167.1355
7300.000000, 91.703, -172.1479
7400.000000, 91.700, -177.3168
7500.000000, 91.602, 177.6217
7620.000000, 91.417, 171.8251
7750.000000, 91.205, 165.7157
7880.000000, 91.023, 159.2880
8000.000000, 90.863, 152.4477
8120.000000, 90.616, 144.2140
8250.000000, 90.047, 133.7618
8380.000000, 88.953, 123.0316
8500.000000, 87.453, 114.8583
8620.000000, 85.674, 109.7807
8750.000000, 83.756, 107.9026
8850.000000, 82.456, 108.2699
9000.000000, 80.879, 109.9760
9120.000000, 79.858, 111.1814
9250.000000, 78.841, 112.0458
9380.000000, 77.799, 113.0554
9500.000000, 76.845, 114.9675
9620.000000, 76.037, 117.8347
9750.000000, 75.400, 120.8872
9880.000000, 74.920, 123.1610
10000.000000, 74.569, 124.6552
10150.000000, 74.237, 125.1114
10300.000000, 73.809, 123.3637
10440.000000, 73.069, 120.8989
10600.000000, 71.811, 119.5430
10750.000000, 70.454, 121.0397
10900.000000, 69.174, 124.8240
11060.000000, 67.961, 130.7882
11200.000000, 67.155, 138.0178
11380.000000, 66.622, 147.4026
11500.000000, 66.464, 152.9936
11720.000000, 66.453, 162.1114
11800.000000, 66.509, 164.9977
12060.000000, 66.822, 172.9989
12200.000000, 67.012, 176.7008
12410.000000, 67.318, -178.1479
12500.000000, 67.479, -176.0430
12650.000000, 67.788, -172.5351
12800.000000, 68.152, -168.9484
13150.000000, 69.305, -160.6529
13200.000000, 69.519, -159.5471
13400.000000, 70.498, -155.4783
13600.000000, 71.673, -152.2143
13800.000000, 73.044, -149.9914
14000.000000, 74.597, -149.0574
14300.000000, 77.318, -150.2110
14500.000000, 79.485, -153.3672
14750.000000, 82.494, -162.4564
15000.000000, 85.236, -179.2006
15250.000000, 86.926, 158.2269
15500.000000, 87.397, 135.2773
15750.000000, 87.228, 115.7391
16000.000000, 87.066, 99.0497
16250.000000, 87.087, 82.6286
16500.000000, 87.057, 64.7845
16750.000000, 86.658, 45.7166
17000.000000, 85.745, 26.9048
17250.000000, 84.406, 9.6879
17500.000000, 82.827, -5.6595
17750.000000, 81.137, -19.7400
18000.000000, 79.331, -33.4191
18250.000000, 77.295, -47.0917
18500.000000, 74.897, -60.4492
18750.000000, 72.071, -72.7174
19000.000000, 68.826, -83.2295
19250.000000, 65.235, -91.6797
19500.000000, 61.398, -98.2349
19750.000000, 57.539, -103.1661
