* Measurement data measured by REW V5.31.3
* Source: Input device not selected, no input selected, L, volume: no control
* Format: 256k Log Swept Sine, 1 sweep at -11.0 dBFS with no timing reference
* Dated: Jun 15, 2025 4:41:28 AM
* REW Settings:
*  C-weighting compensation: Off
*  Target level: 75.0 dB
* Note: ; 
* Measurement: Project Meta (H570 M) L
* Smoothing: 1/24 octave
* Frequency Step: 1/48 octave
* Start Frequency: 20.300 Hz
*
* Freq(Hz), SPL(dB), Phase(degrees)
20.299999, 80.837, -5.4129
20.600000, 80.823, -5.6928
20.900000, 80.807, -6.0147
21.200001, 80.791, -6.3538
21.400000, 80.781, -6.5874
21.799999, 80.759, -7.0569
22.000000, 80.748, -7.2830
22.400000, 80.721, -7.6991
22.700001, 80.700, -7.9787
23.000000, 80.680, -8.2434
23.299999, 80.661, -8.5132
23.600000, 80.644, -8.8072
24.000000, 80.621, -9.2505
24.299999, 80.604, -9.6134
24.700001, 80.578, -10.1047
25.000000, 80.557, -10.4548
25.400000, 80.530, -10.8783
25.799999, 80.505, -11.2576
26.200001, 80.481, -11.6164
26.500000, 80.461, -11.8860
26.900000, 80.433, -12.2536
27.200001, 80.410, -12.5331
27.600000, 80.381, -12.9030
28.000000, 80.354, -13.2626
28.500000, 80.325, -13.6939
29.000000, 80.297, -14.1049
29.500000, 80.263, -14.4948
30.000000, 80.222, -14.8639
30.400000, 80.186, -15.1485
30.700001, 80.159, -15.3605
31.100000, 80.124, -15.6487
31.500000, 80.093, -15.9519
32.000000, 80.056, -16.3544
32.500000, 80.017, -16.7616
33.000000, 79.972, -17.1315
33.500000, 79.927, -17.4422
34.000000, 79.888, -17.7218
34.500000, 79.856, -18.0273
35.000000, 79.825, -18.3847
35.500000, 79.786, -18.7626
36.000000, 79.740, -19.1126
36.500000, 79.693, -19.4220
37.000000, 79.649, -19.7174
37.500000, 79.606, -20.0221
38.200001, 79.542, -20.4457
38.700001, 79.495, -20.7205
39.500000, 79.421, -21.1204
40.000000, 79.377, -21.3734
40.599998, 79.326, -21.6978
41.200001, 79.274, -22.0340
41.799999, 79.219, -22.3481
42.500000, 79.153, -22.6640
43.099998, 79.099, -22.9293
43.700001, 79.047, -23.2315
44.400002, 78.986, -23.5978
45.000000, 78.935, -23.8789
45.500000, 78.896, -24.1035
46.200001, 78.839, -24.4490
46.799999, 78.781, -24.7571
47.500000, 78.711, -25.0691
48.200001, 78.646, -25.3210
48.700001, 78.601, -25.4790
49.400002, 78.533, -25.6805
50.000000, 78.472, -25.8598
50.799999, 78.392, -26.1623
51.500000, 78.324, -26.4529
52.200001, 78.258, -26.6892
53.000000, 78.187, -26.9007
53.799999, 78.110, -27.1104
54.500000, 78.036, -27.2716
55.200001, 77.965, -27.4149
56.000000, 77.892, -27.6637
57.000000, 77.800, -28.1363
58.000000, 77.725, -28.5213
59.000000, 77.665, -28.7557
60.000000, 77.562, -28.8753
60.799999, 77.458, -28.9026
61.500000, 77.378, -28.9785
62.200001, 77.312, -29.1546
63.000000, 77.239, -29.4057
64.000000, 77.136, -29.5529
65.000000, 77.026, -29.4335
66.000000, 76.915, -29.4349
67.000000, 76.808, -29.7632
68.000000, 76.746, -30.0282
69.000000, 76.712, -30.0704
70.000000, 76.616, -30.0669
71.000000, 76.491, -30.1858
72.000000, 76.392, -30.4646
73.000000, 76.262, -30.5029
74.000000, 76.110, -30.2582
75.000000, 76.017, -30.2572
76.199997, 75.969, -30.5002
77.500000, 75.839, -30.7296
78.800003, 75.644, -30.8103
80.000000, 75.559, -30.6470
81.199997, 75.481, -30.4980
82.500000, 75.359, -30.4957
83.800003, 75.258, -30.5946
85.000000, 75.145, -30.6927
86.199997, 74.990, -30.6354
87.500000, 74.873, -30.5310
88.500000, 74.802, -30.3832
90.000000, 74.679, -29.7051
91.199997, 74.570, -29.4154
92.500000, 74.461, -29.4689
93.800003, 74.364, -29.4287
95.000000, 74.282, -29.1876
96.199997, 74.182, -29.0146
97.500000, 74.060, -28.9009
98.800003, 73.959, -28.7357
100.000000, 73.861, -28.3748
101.500000, 73.730, -27.9275
103.000000, 73.599, -27.5053
104.400002, 73.474, -26.9657
106.000000, 73.368, -26.3617
107.500000, 73.249, -26.1043
109.000000, 73.110, -25.9608
110.599998, 72.980, -25.6480
112.000000, 72.884, -25.3300
113.800003, 72.767, -24.8973
115.000000, 72.684, -24.5995
117.199997, 72.529, -24.1400
118.000000, 72.481, -23.9439
120.599998, 72.334, -22.9735
122.000000, 72.190, -22.3133
124.099998, 71.953, -21.5170
125.000000, 71.864, -21.1038
126.500000, 71.735, -20.3614
128.000000, 71.614, -19.5601
131.500000, 71.317, -17.4135
132.000000, 71.281, -17.0282
134.000000, 71.173, -15.2628
136.000000, 71.113, -13.2381
138.000000, 71.127, -11.1514
140.000000, 71.195, -9.3453
143.000000, 71.425, -7.7775
145.000000, 71.607, -7.6369
147.500000, 71.692, -7.6910
150.000000, 71.689, -7.7737
152.500000, 71.662, -7.7237
155.000000, 71.599, -7.4781
157.500000, 71.531, -7.0475
160.000000, 71.460, -6.5022
162.500000, 71.384, -5.9490
165.000000, 71.300, -5.3565
167.500000, 71.232, -4.7056
170.000000, 71.178, -4.0376
172.500000, 71.133, -3.3445
175.000000, 71.091, -2.6406
177.500000, 71.052, -1.9379
180.000000, 71.016, -1.2306
182.500000, 70.987, -0.5436
185.000000, 70.953, 0.1704
187.500000, 70.916, 0.8770
190.000000, 70.905, 1.5734
192.500000, 70.904, 2.2820
195.000000, 70.893, 2.9056
197.500000, 70.870, 3.5803
200.000000, 70.847, 4.2833
203.000000, 70.834, 5.0618
206.000000, 70.822, 5.7952
209.000000, 70.813, 6.5465
212.000000, 70.800, 7.3084
214.000000, 70.794, 7.8573
218.000000, 70.798, 8.8582
220.000000, 70.804, 9.3016
224.000000, 70.814, 10.1879
227.000000, 70.814, 10.8331
230.000000, 70.810, 11.4494
233.000000, 70.811, 12.0409
236.000000, 70.817, 12.6035
240.000000, 70.822, 13.4255
243.000000, 70.824, 14.0738
247.000000, 70.836, 14.8950
250.000000, 70.848, 15.4679
254.000000, 70.858, 16.1489
258.000000, 70.860, 16.8949
262.000000, 70.873, 17.6348
265.000000, 70.879, 18.1814
269.000000, 70.880, 18.9364
272.000000, 70.891, 19.5587
276.000000, 70.920, 20.4812
280.000000, 70.961, 21.3557
285.000000, 71.037, 22.3708
290.000000, 71.138, 23.1280
295.000000, 71.241, 23.5538
300.000000, 71.309, 23.7995
304.000000, 71.337, 23.9433
307.000000, 71.347, 24.0877
311.000000, 71.350, 24.3613
315.000000, 71.350, 24.6509
320.000000, 71.349, 25.0195
325.000000, 71.351, 25.4095
330.000000, 71.350, 25.9292
335.000000, 71.343, 26.4760
340.000000, 71.343, 26.9390
345.000000, 71.346, 27.3939
350.000000, 71.347, 27.9186
355.000000, 71.342, 28.4331
360.000000, 71.337, 28.9188
365.000000, 71.343, 29.3909
370.000000, 71.344, 29.8514
375.000000, 71.338, 30.3398
382.000000, 71.341, 31.0614
387.000000, 71.343, 31.5282
395.000000, 71.334, 32.2324
400.000000, 71.329, 32.6740
406.000000, 71.327, 33.2243
412.000000, 71.330, 33.8105
418.000000, 71.327, 34.3539
425.000000, 71.316, 35.0121
431.000000, 71.309, 35.5717
437.000000, 71.299, 36.0485
444.000000, 71.288, 36.6559
450.000000, 71.279, 37.2261
455.000000, 71.274, 37.6670
462.000000, 71.264, 38.2628
468.000000, 71.253, 38.8049
475.000000, 71.238, 39.4561
482.000000, 71.225, 40.1193
487.000000, 71.215, 40.5592
494.000000, 71.202, 41.1728
500.000000, 71.191, 41.7069
508.000000, 71.176, 42.3752
515.000000, 71.162, 42.9658
522.000000, 71.146, 43.6266
530.000000, 71.129, 44.3467
538.000000, 71.117, 45.0241
545.000000, 71.102, 45.6460
552.000000, 71.084, 46.2933
560.000000, 71.067, 47.0476
570.000000, 71.046, 47.9540
580.000000, 71.021, 48.8526
590.000000, 70.998, 49.7541
600.000000, 70.970, 50.6918
608.000000, 70.949, 51.4560
615.000000, 70.931, 52.1123
622.000000, 70.912, 52.7644
630.000000, 70.895, 53.4959
640.000000, 70.871, 54.4146
650.000000, 70.846, 55.4407
660.000000, 70.827, 56.3950
670.000000, 70.808, 57.2916
680.000000, 70.786, 58.2882
690.000000, 70.757, 59.2880
700.000000, 70.733, 60.2750
710.000000, 70.715, 61.2722
720.000000, 70.699, 62.3225
730.000000, 70.681, 63.3661
740.000000, 70.659, 64.3950
750.000000, 70.645, 65.4056
762.000000, 70.635, 66.6006
775.000000, 70.620, 67.9491
788.000000, 70.611, 69.3000
800.000000, 70.603, 70.5446
812.000000, 70.596, 71.8259
825.000000, 70.591, 73.2084
838.000000, 70.593, 74.5924
850.000000, 70.597, 75.8521
862.000000, 70.602, 77.1579
875.000000, 70.616, 78.5917
885.000000, 70.632, 79.6733
900.000000, 70.659, 81.2743
912.000000, 70.681, 82.5545
925.000000, 70.716, 83.9052
938.000000, 70.752, 85.2515
950.000000, 70.789, 86.4670
962.000000, 70.833, 87.6804
975.000000, 70.881, 88.9696
988.000000, 70.927, 90.2248
1000.000000, 70.974, 91.3662
1015.000000, 71.049, 92.7490
1030.000000, 71.125, 94.1093
1044.000000, 71.196, 95.3603
1060.000000, 71.274, 96.7204
1075.000000, 71.347, 97.9216
1090.000000, 71.423, 99.1063
1106.000000, 71.505, 100.3227
1120.000000, 71.577, 101.3430
1138.000000, 71.656, 102.6240
1150.000000, 71.707, 103.4761
1172.000000, 71.810, 104.9475
1180.000000, 71.847, 105.4531
1206.000000, 71.957, 107.0565
1220.000000, 72.014, 107.9357
1241.000000, 72.097, 109.2296
1250.000000, 72.131, 109.7662
1265.000000, 72.182, 110.6686
1280.000000, 72.227, 111.5668
1315.000000, 72.325, 113.6292
1320.000000, 72.339, 113.9278
1340.000000, 72.393, 115.1293
1360.000000, 72.444, 116.3532
1380.000000, 72.488, 117.5772
1400.000000, 72.532, 118.7805
1430.000000, 72.599, 120.5881
1450.000000, 72.645, 121.8190
1475.000000, 72.698, 123.3559
1500.000000, 72.753, 124.9410
1525.000000, 72.811, 126.5504
1550.000000, 72.877, 128.1488
1575.000000, 72.947, 129.7222
1600.000000, 73.013, 131.2853
1625.000000, 73.082, 132.8957
1650.000000, 73.158, 134.5238
1675.000000, 73.239, 136.1580
1700.000000, 73.325, 137.7725
1725.000000, 73.420, 139.3421
1750.000000, 73.517, 140.9416
1775.000000, 73.616, 142.5384
1800.000000, 73.717, 144.1014
1825.000000, 73.827, 145.6060
1850.000000, 73.947, 147.1157
1875.000000, 74.072, 148.6039
1900.000000, 74.202, 150.0651
1925.000000, 74.336, 151.5204
1950.000000, 74.476, 152.9318
1975.000000, 74.625, 154.3004
2000.000000, 74.779, 155.6311
2030.000000, 74.964, 157.1424
2060.000000, 75.159, 158.6100
2090.000000, 75.365, 160.0154
2120.000000, 75.579, 161.3221
2140.000000, 75.724, 162.1472
2180.000000, 76.022, 163.6738
2200.000000, 76.173, 164.3687
2240.000000, 76.485, 165.6300
2270.000000, 76.723, 166.4357
2300.000000, 76.964, 167.1151
2330.000000, 77.206, 167.6351
2360.000000, 77.446, 168.0233
2400.000000, 77.760, 168.3653
2430.000000, 77.990, 168.4431
2470.000000, 78.286, 168.2887
2500.000000, 78.490, 167.9977
2540.000000, 78.739, 167.4025
2580.000000, 78.955, 166.5800
2620.000000, 79.130, 165.5360
2650.000000, 79.231, 164.6652
2690.000000, 79.323, 163.4165
2720.000000, 79.359, 162.4357
2760.000000, 79.361, 161.0988
2800.000000, 79.313, 159.8111
2850.000000, 79.180, 158.3674
2900.000000, 78.983, 157.2103
2950.000000, 78.739, 156.4158
3000.000000, 78.461, 156.0323
3040.000000, 78.223, 156.0478
3070.000000, 78.047, 156.2395
3110.000000, 77.822, 156.6964
3150.000000, 77.610, 157.3319
3200.000000, 77.370, 158.2736
3250.000000, 77.150, 159.3312
3300.000000, 76.947, 160.4562
3350.000000, 76.749, 161.6451
3400.000000, 76.560, 162.9432
3450.000000, 76.383, 164.3645
3500.000000, 76.219, 165.8770
3550.000000, 76.074, 167.4653
3600.000000, 75.952, 169.0988
3650.000000, 75.852, 170.7395
3700.000000, 75.774, 172.3674
3750.000000, 75.712, 173.9946
3820.000000, 75.653, 176.2177
3870.000000, 75.636, 177.7435
3950.000000, 75.653, 179.9968
4000.000000, 75.689, -178.7725
4060.000000, 75.752, -177.6250
4120.000000, 75.816, -176.8407
4180.000000, 75.857, -176.4265
4250.000000, 75.844, -176.2773
4310.000000, 75.759, -176.2508
4370.000000, 75.607, -176.0608
4440.000000, 75.378, -175.3362
4500.000000, 75.183, -174.2275
4550.000000, 75.052, -172.9732
4620.000000, 74.942, -170.9326
4680.000000, 74.922, -169.2454
4750.000000, 74.971, -167.6038
4820.000000, 75.060, -166.4177
4870.000000, 75.132, -165.8945
4940.000000, 75.219, -165.6117
5000.000000, 75.269, -165.6811
5080.000000, 75.280, -166.0867
5150.000000, 75.226, -166.6187
5220.000000, 75.117, -167.1323
5300.000000, 74.935, -167.5848
5380.000000, 74.707, -167.7587
5450.000000, 74.487, -167.6399
5520.000000, 74.266, -167.2598
5600.000000, 74.024, -166.5004
5700.000000, 73.761, -165.0638
5800.000000, 73.571, -163.2800
5900.000000, 73.468, -161.2620
6000.000000, 73.464, -159.0970
6080.000000, 73.532, -157.3686
6150.000000, 73.652, -155.9265
6220.000000, 73.836, -154.5779
6300.000000, 74.127, -153.2061
6400.000000, 74.616, -151.8965
6500.000000, 75.256, -151.2407
6600.000000, 76.048, -151.5839
6700.000000, 76.975, -153.3704
6800.000000, 77.998, -157.1463
6900.000000, 79.002, -163.5236
7000.000000, 79.750, -172.6880
7100.000000, 80.033, 176.4561
7200.000000, 79.801, 165.6324
7300.000000, 79.144, 156.2045
7400.000000, 78.227, 148.9254
7500.000000, 77.212, 143.9753
7620.000000, 76.038, 140.6663
7750.000000, 74.953, 139.3530
7880.000000, 74.104, 139.4873
8000.000000, 73.521, 140.2481
8120.000000, 73.106, 141.2436
8250.000000, 72.806, 142.3334
8380.000000, 72.631, 143.1887
8500.000000, 72.545, 143.5946
8620.000000, 72.497, 143.5712
8750.000000, 72.449, 143.0428
8850.000000, 72.382, 142.3017
9000.000000, 72.199, 140.8736
9120.000000, 71.958, 139.7072
9250.000000, 71.602, 138.7003
9380.000000, 71.160, 138.1800
9500.000000, 70.695, 138.3220
9620.000000, 70.199, 139.1419
9750.000000, 69.660, 140.7745
9880.000000, 69.141, 143.1196
10000.000000, 68.688, 145.8411
10150.000000, 68.175, 149.9296
10300.000000, 67.743, 154.6108
10440.000000, 67.414, 159.4922
10600.000000, 67.116, 165.6480
10750.000000, 66.926, 171.9443
10900.000000, 66.838, 178.8481
11060.000000, 66.925, -173.0801
11200.000000, 67.222, -165.9210
11380.000000, 67.855, -157.7056
11500.000000, 68.365, -152.9377
11720.000000, 69.411, -145.3882
11800.000000, 69.819, -143.0171
12060.000000, 71.219, -136.4858
12200.000000, 72.037, -133.6782
12410.000000, 73.388, -130.7824
12500.000000, 73.997, -130.2041
12650.000000, 75.010, -130.3699
12800.000000, 75.950, -132.0035
13150.000000, 77.442, -139.8151
13200.000000, 77.556, -141.0734
13400.000000, 77.817, -145.5341
13600.000000, 77.907, -148.5100
13800.000000, 78.028, -149.9582
14000.000000, 78.352, -150.5317
14300.000000, 79.474, -152.4200
14500.000000, 80.630, -157.1414
14750.000000, 81.966, -170.2136
15000.000000, 82.134, 169.9172
15250.000000, 80.549, 150.8426
15500.000000, 77.811, 139.5215
15750.000000, 74.910, 136.5898
16000.000000, 72.434, 139.1904
16250.000000, 70.497, 144.6924
16500.000000, 69.050, 151.5306
16750.000000, 68.013, 158.7190
17000.000000, 67.301, 165.6565
17250.000000, 66.809, 171.8460
17500.000000, 66.456, 177.2687
17750.000000, 66.230, -178.1378
18000.000000, 66.138, -175.0038
18250.000000, 66.119, -174.4090
18500.000000, 65.985, -177.2028
18750.000000, 65.420, 176.6004
19000.000000, 64.144, 168.6294
19250.000000, 62.155, 161.3395
19500.000000, 59.763, 155.5236
19750.000000, 57.368, 149.6535
