* Measurement data measured by REW V5.31.3
* Source: Input device not selected, no input selected, L, volume: no control
* Format: 256k Log Swept Sine, 1 sweep at -11.0 dBFS with no timing reference
* Dated: Jun 16, 2025 12:30:41 PM
* REW Settings:
*  C-weighting compensation: Off
*  Target level: 75.0 dB
* Note: ; 
* Measurement: Project Meta (Stock L Shall) L
* Smoothing: 1/24 octave
* Frequency Step: 1/48 octave
* Start Frequency: 20.300 Hz
*
* Freq(Hz), SPL(dB), Phase(degrees)
20.299999, 81.580, -7.1617
20.600000, 81.632, -6.8253
20.900000, 81.639, -6.3466
21.200001, 81.582, -5.8445
21.400000, 81.516, -5.5461
21.799999, 81.355, -5.1361
22.000000, 81.280, -5.0565
22.400000, 81.177, -5.1849
22.700001, 81.154, -5.5248
23.000000, 81.166, -6.0378
23.299999, 81.187, -6.6731
23.600000, 81.187, -7.3715
24.000000, 81.119, -8.3024
24.299999, 81.015, -8.9418
24.700001, 80.848, -9.6793
25.000000, 80.749, -10.1645
25.400000, 80.716, -10.7850
25.799999, 80.808, -11.4024
26.200001, 80.970, -11.9143
26.500000, 81.081, -12.1108
26.900000, 81.154, -12.0024
27.200001, 81.138, -11.6632
27.600000, 81.031, -11.0889
28.000000, 80.868, -10.8009
28.500000, 80.656, -11.4329
29.000000, 80.498, -13.0997
29.500000, 80.432, -14.8186
30.000000, 80.451, -15.5539
30.400000, 80.496, -15.3587
30.700001, 80.521, -15.0237
31.100000, 80.511, -14.7468
31.500000, 80.429, -15.0006
32.000000, 80.242, -16.0515
32.500000, 80.063, -17.2708
33.000000, 80.008, -17.8241
33.500000, 80.098, -17.4920
34.000000, 80.226, -16.7662
34.500000, 80.256, -16.2498
35.000000, 80.145, -16.2241
35.500000, 79.975, -16.7170
36.000000, 79.868, -17.6580
36.500000, 79.865, -18.8506
37.000000, 79.895, -19.9261
37.500000, 79.876, -20.5129
38.200001, 79.772, -20.4679
38.700001, 79.721, -20.3207
39.500000, 79.723, -20.6908
40.000000, 79.715, -20.9680
40.599998, 79.666, -20.9161
41.200001, 79.595, -20.8212
41.799999, 79.520, -21.3620
42.500000, 79.426, -22.5907
43.099998, 79.364, -23.1726
43.700001, 79.338, -22.9136
44.400002, 79.312, -22.4494
45.000000, 79.247, -22.7656
45.500000, 79.176, -23.5432
46.200001, 79.121, -24.6367
46.799999, 79.126, -24.9421
47.500000, 79.108, -24.5485
48.200001, 78.994, -23.9864
48.700001, 78.882, -23.8345
49.400002, 78.781, -24.1244
50.000000, 78.774, -24.6520
50.799999, 78.770, -25.2335
51.500000, 78.675, -25.3832
52.200001, 78.534, -25.4413
53.000000, 78.415, -25.8684
53.799999, 78.336, -26.4861
54.500000, 78.248, -26.7422
55.200001, 78.132, -26.8198
56.000000, 77.983, -27.0758
57.000000, 77.842, -27.4937
58.000000, 77.806, -27.4808
59.000000, 77.820, -27.5851
60.000000, 77.768, -28.2817
60.799999, 77.692, -28.5739
61.500000, 77.645, -28.5059
62.200001, 77.586, -28.4666
63.000000, 77.458, -28.5762
64.000000, 77.295, -28.7423
65.000000, 77.184, -28.6798
66.000000, 77.101, -28.4643
67.000000, 77.002, -28.7328
68.000000, 76.945, -28.8136
69.000000, 76.981, -28.9902
70.000000, 76.892, -29.7359
71.000000, 76.747, -30.0497
72.000000, 76.670, -29.8830
73.000000, 76.570, -29.4029
74.000000, 76.475, -29.1034
75.000000, 76.369, -29.0773
76.199997, 76.225, -28.9050
77.500000, 76.052, -29.6914
78.800003, 75.874, -29.6554
80.000000, 75.810, -29.1306
81.199997, 75.672, -29.3882
82.500000, 75.526, -29.0422
83.800003, 75.503, -28.9614
85.000000, 75.417, -29.1732
86.199997, 75.285, -28.9890
87.500000, 75.163, -29.2589
88.500000, 75.072, -29.0861
90.000000, 75.026, -27.9838
91.199997, 74.973, -27.8715
92.500000, 74.760, -27.9856
93.800003, 74.647, -27.7919
95.000000, 74.655, -27.8798
96.199997, 74.546, -27.7661
97.500000, 74.359, -27.1457
98.800003, 74.292, -26.5004
100.000000, 74.256, -26.6455
101.500000, 74.094, -27.0697
103.000000, 73.945, -26.3378
104.400002, 73.894, -25.5306
106.000000, 73.868, -25.5185
107.500000, 73.753, -25.7622
109.000000, 73.564, -25.2916
110.599998, 73.444, -24.1428
112.000000, 73.421, -23.3583
113.800003, 73.385, -23.2551
115.000000, 73.305, -23.4908
117.199997, 73.054, -23.4948
118.000000, 72.955, -23.1647
120.599998, 72.712, -21.5149
122.000000, 72.666, -20.7806
124.099998, 72.635, -19.9709
125.000000, 72.615, -19.7465
126.500000, 72.562, -19.4250
128.000000, 72.490, -19.0576
131.500000, 72.320, -18.2677
132.000000, 72.296, -18.1387
134.000000, 72.195, -17.5395
136.000000, 72.091, -16.8570
138.000000, 72.002, -16.0741
140.000000, 71.925, -15.2282
143.000000, 71.793, -13.9642
145.000000, 71.685, -13.1236
147.500000, 71.566, -12.3356
150.000000, 71.486, -11.7524
152.500000, 71.449, -11.1777
155.000000, 71.431, -10.2642
157.500000, 71.375, -9.0488
160.000000, 71.273, -8.0550
162.500000, 71.206, -7.4353
165.000000, 71.183, -6.5722
167.500000, 71.120, -5.4741
170.000000, 71.058, -4.6763
172.500000, 71.033, -3.7831
175.000000, 70.990, -2.8709
177.500000, 70.955, -2.1589
180.000000, 70.929, -1.3282
182.500000, 70.908, -0.6290
185.000000, 70.900, 0.1124
187.500000, 70.883, 0.9172
190.000000, 70.868, 1.6926
192.500000, 70.853, 2.4432
195.000000, 70.844, 3.2135
197.500000, 70.837, 3.9374
200.000000, 70.826, 4.6284
203.000000, 70.818, 5.4298
206.000000, 70.808, 6.2036
209.000000, 70.803, 7.0080
212.000000, 70.809, 7.7896
214.000000, 70.814, 8.2688
218.000000, 70.827, 9.1938
220.000000, 70.831, 9.6892
224.000000, 70.834, 10.6956
227.000000, 70.839, 11.3825
230.000000, 70.849, 12.0185
233.000000, 70.859, 12.6279
236.000000, 70.869, 13.2370
240.000000, 70.887, 14.0663
243.000000, 70.907, 14.6109
247.000000, 70.932, 15.3155
250.000000, 70.944, 15.8460
254.000000, 70.959, 16.5299
258.000000, 70.976, 17.2223
262.000000, 70.988, 17.9537
265.000000, 71.002, 18.5046
269.000000, 71.024, 19.1565
272.000000, 71.039, 19.6090
276.000000, 71.054, 20.1930
280.000000, 71.069, 20.7858
285.000000, 71.092, 21.4672
290.000000, 71.114, 22.1700
295.000000, 71.130, 22.8793
300.000000, 71.150, 23.4995
304.000000, 71.165, 23.9377
307.000000, 71.170, 24.2883
311.000000, 71.174, 24.7736
315.000000, 71.186, 25.2690
320.000000, 71.212, 25.8673
325.000000, 71.233, 26.4382
330.000000, 71.241, 26.9802
335.000000, 71.258, 27.4907
340.000000, 71.273, 28.0224
345.000000, 71.279, 28.5746
350.000000, 71.288, 29.1322
355.000000, 71.295, 29.6571
360.000000, 71.302, 30.1526
365.000000, 71.303, 30.6550
370.000000, 71.299, 31.1228
375.000000, 71.297, 31.6275
382.000000, 71.290, 32.3188
387.000000, 71.285, 32.8018
395.000000, 71.284, 33.5947
400.000000, 71.281, 34.0802
406.000000, 71.271, 34.6453
412.000000, 71.266, 35.2193
418.000000, 71.268, 35.7765
425.000000, 71.270, 36.4469
431.000000, 71.264, 37.0005
437.000000, 71.256, 37.5295
444.000000, 71.248, 38.1877
450.000000, 71.240, 38.7698
455.000000, 71.233, 39.2370
462.000000, 71.225, 39.8541
468.000000, 71.218, 40.3907
475.000000, 71.209, 40.9853
482.000000, 71.192, 41.6059
487.000000, 71.182, 42.0739
494.000000, 71.172, 42.7617
500.000000, 71.163, 43.3547
508.000000, 71.146, 44.0920
515.000000, 71.125, 44.7116
522.000000, 71.109, 45.3512
530.000000, 71.095, 46.1019
538.000000, 71.079, 46.8610
545.000000, 71.059, 47.4783
552.000000, 71.045, 48.1293
560.000000, 71.033, 48.8564
570.000000, 71.015, 49.7934
580.000000, 71.001, 50.7479
590.000000, 70.982, 51.6889
600.000000, 70.956, 52.6533
608.000000, 70.937, 53.4255
615.000000, 70.920, 54.0946
622.000000, 70.902, 54.7686
630.000000, 70.885, 55.5606
640.000000, 70.864, 56.5287
650.000000, 70.840, 57.5390
660.000000, 70.818, 58.5841
670.000000, 70.796, 59.5907
680.000000, 70.771, 60.5520
690.000000, 70.743, 61.5545
700.000000, 70.718, 62.5904
710.000000, 70.688, 63.6485
720.000000, 70.660, 64.6709
730.000000, 70.642, 65.7063
740.000000, 70.628, 66.7454
750.000000, 70.613, 67.8118
762.000000, 70.599, 69.0860
775.000000, 70.591, 70.4570
788.000000, 70.580, 71.8043
800.000000, 70.568, 73.0719
812.000000, 70.560, 74.3880
825.000000, 70.559, 75.8454
838.000000, 70.568, 77.2811
850.000000, 70.575, 78.6014
862.000000, 70.582, 79.9301
875.000000, 70.592, 81.3662
885.000000, 70.601, 82.4661
900.000000, 70.626, 84.1041
912.000000, 70.659, 85.3895
925.000000, 70.695, 86.7815
938.000000, 70.727, 88.1878
950.000000, 70.761, 89.4539
962.000000, 70.800, 90.7063
975.000000, 70.847, 92.0443
988.000000, 70.898, 93.3162
1000.000000, 70.947, 94.4808
1015.000000, 71.010, 95.9835
1030.000000, 71.073, 97.4428
1044.000000, 71.131, 98.7294
1060.000000, 71.207, 100.1277
1075.000000, 71.288, 101.3806
1090.000000, 71.367, 102.6235
1106.000000, 71.447, 103.9175
1120.000000, 71.516, 104.9984
1138.000000, 71.601, 106.3473
1150.000000, 71.655, 107.2282
1172.000000, 71.751, 108.8071
1180.000000, 71.782, 109.3658
1206.000000, 71.880, 111.1444
1220.000000, 71.931, 112.0726
1241.000000, 72.010, 113.4485
1250.000000, 72.045, 114.0441
1265.000000, 72.100, 115.0194
1280.000000, 72.149, 115.9588
1315.000000, 72.245, 118.1500
1320.000000, 72.259, 118.4687
1340.000000, 72.311, 119.7691
1360.000000, 72.364, 121.0634
1380.000000, 72.416, 122.3856
1400.000000, 72.467, 123.7124
1430.000000, 72.538, 125.6734
1450.000000, 72.583, 127.0018
1475.000000, 72.638, 128.7041
1500.000000, 72.692, 130.3948
1525.000000, 72.751, 132.1483
1550.000000, 72.815, 133.9449
1575.000000, 72.890, 135.7582
1600.000000, 72.979, 137.4930
1625.000000, 73.071, 139.1666
1650.000000, 73.158, 140.8224
1675.000000, 73.242, 142.4662
1700.000000, 73.328, 144.1266
1725.000000, 73.424, 145.7771
1750.000000, 73.522, 147.4389
1775.000000, 73.624, 149.0870
1800.000000, 73.737, 150.7305
1825.000000, 73.854, 152.3532
1850.000000, 73.975, 153.9671
1875.000000, 74.104, 155.5515
1900.000000, 74.240, 157.1015
1925.000000, 74.381, 158.6042
1950.000000, 74.524, 160.0748
1975.000000, 74.670, 161.5280
2000.000000, 74.819, 162.9539
2030.000000, 75.005, 164.6300
2060.000000, 75.199, 166.2128
2090.000000, 75.408, 167.7118
2120.000000, 75.629, 169.1555
2140.000000, 75.783, 170.0677
2180.000000, 76.099, 171.7467
2200.000000, 76.260, 172.5022
2240.000000, 76.586, 173.8571
2270.000000, 76.832, 174.7497
2300.000000, 77.081, 175.5064
2330.000000, 77.331, 176.1406
2360.000000, 77.581, 176.6503
2400.000000, 77.902, 177.1175
2430.000000, 78.132, 177.3139
2470.000000, 78.423, 177.3705
2500.000000, 78.628, 177.2525
2540.000000, 78.879, 176.8785
2580.000000, 79.100, 176.2471
2620.000000, 79.278, 175.4115
2650.000000, 79.380, 174.7165
2690.000000, 79.472, 173.7722
2720.000000, 79.511, 173.0692
2760.000000, 79.528, 172.2076
2800.000000, 79.517, 171.4262
2850.000000, 79.476, 170.4470
2900.000000, 79.389, 169.4647
2950.000000, 79.239, 168.6150
3000.000000, 79.035, 168.0799
3040.000000, 78.847, 167.9722
3070.000000, 78.700, 168.0714
3110.000000, 78.503, 168.4122
3150.000000, 78.312, 168.9415
3200.000000, 78.086, 169.8048
3250.000000, 77.871, 170.8791
3300.000000, 77.668, 172.1314
3350.000000, 77.489, 173.5377
3400.000000, 77.335, 175.0567
3450.000000, 77.202, 176.6600
3500.000000, 77.091, 178.3513
3550.000000, 77.005, -179.9285
3600.000000, 76.946, -178.1989
3650.000000, 76.917, -176.4655
3700.000000, 76.915, -174.7629
3750.000000, 76.936, -173.1290
3820.000000, 77.014, -171.0934
3870.000000, 77.102, -169.9017
3950.000000, 77.272, -168.5628
4000.000000, 77.373, -168.1489
4060.000000, 77.466, -168.0252
4120.000000, 77.505, -168.2521
4180.000000, 77.475, -168.6595
4250.000000, 77.349, -169.1317
4310.000000, 77.167, -169.3534
4370.000000, 76.933, -169.1725
4440.000000, 76.633, -168.3041
4500.000000, 76.399, -167.0261
4550.000000, 76.247, -165.6957
4620.000000, 76.117, -163.6635
4680.000000, 76.076, -161.9878
4750.000000, 76.091, -160.3401
4820.000000, 76.141, -159.1757
4870.000000, 76.176, -158.6563
4940.000000, 76.203, -158.2755
5000.000000, 76.193, -158.1944
5080.000000, 76.122, -158.2880
5150.000000, 76.009, -158.3634
5220.000000, 75.859, -158.3091
5300.000000, 75.662, -157.9695
5380.000000, 75.456, -157.2937
5450.000000, 75.281, -156.4438
5520.000000, 75.125, -155.3786
5600.000000, 74.986, -153.9387
5700.000000, 74.880, -151.8608
5800.000000, 74.867, -149.6351
5900.000000, 74.964, -147.3912
6000.000000, 75.185, -145.2820
6080.000000, 75.459, -143.8180
6150.000000, 75.770, -142.8146
6220.000000, 76.148, -142.1616
6300.000000, 76.660, -141.9616
6400.000000, 77.406, -142.8037
6500.000000, 78.228, -145.2636
6600.000000, 79.044, -149.7156
6700.000000, 79.721, -156.2534
6800.000000, 80.123, -164.4399
6900.000000, 80.153, -173.4024
7000.000000, 79.778, 178.0179
7100.000000, 79.083, 171.0020
7200.000000, 78.240, 166.0818
7300.000000, 77.394, 163.0903
7400.000000, 76.624, 161.5927
7500.000000, 75.966, 161.1937
7620.000000, 75.349, 161.7287
7750.000000, 74.912, 163.0081
7880.000000, 74.704, 164.5018
8000.000000, 74.687, 165.7297
8120.000000, 74.807, 166.5378
8250.000000, 75.056, 166.6547
8380.000000, 75.377, 165.6977
8500.000000, 75.669, 163.7491
8620.000000, 75.879, 160.8372
8750.000000, 75.940, 156.9437
8850.000000, 75.841, 153.8075
9000.000000, 75.459, 149.5690
9120.000000, 74.995, 147.0307
9250.000000, 74.400, 145.4261
9380.000000, 73.778, 145.0664
9500.000000, 73.229, 145.7073
9620.000000, 72.733, 147.1037
9750.000000, 72.273, 149.2555
9880.000000, 71.902, 151.8858
10000.000000, 71.645, 154.5572
10150.000000, 71.426, 157.9490
10300.000000, 71.304, 161.1740
10440.000000, 71.255, 163.8798
10600.000000, 71.221, 166.5039
10750.000000, 71.155, 168.6263
10900.000000, 71.014, 170.7869
11060.000000, 70.820, 173.7399
11200.000000, 70.694, 176.9500
11380.000000, 70.635, -178.6887
11500.000000, 70.644, -175.7605
11720.000000, 70.758, -170.4958
11800.000000, 70.830, -168.6834
12060.000000, 71.128, -163.2754
12200.000000, 71.314, -160.6578
12410.000000, 71.608, -157.2493
12500.000000, 71.728, -155.9719
12650.000000, 71.908, -153.9439
12800.000000, 72.066, -151.8333
13150.000000, 72.512, -145.9613
13200.000000, 72.603, -145.0313
13400.000000, 73.079, -141.3486
13600.000000, 73.780, -138.1815
13800.000000, 74.718, -136.3339
14000.000000, 75.831, -136.7925
14300.000000, 77.460, -143.5271
14500.000000, 78.125, -151.9042
14750.000000, 78.109, -163.8980
15000.000000, 77.261, -173.4519
15250.000000, 76.140, -178.3405
15500.000000, 75.313, -179.3946
15750.000000, 75.138, -179.1800
16000.000000, 75.764, 178.4951
16250.000000, 76.832, 168.8252
16500.000000, 77.186, 150.1521
16750.000000, 75.740, 128.6371
17000.000000, 72.643, 113.1980
17250.000000, 68.886, 106.7631
17500.000000, 65.255, 107.0038
17750.000000, 61.996, 110.9965
18000.000000, 59.082, 116.9039
18250.000000, 56.429, 123.3466
18500.000000, 53.926, 129.5741
18750.000000, 51.418, 135.0293
19000.000000, 48.727, 140.1506
19250.000000, 45.822, 146.4680
19500.000000, 42.929, 154.1838
19750.000000, 40.706, 161.1206
