* Measurement data measured by REW V5.31.3
* Source: Input device not selected, no input selected, L, volume: no control
* Format: 256k Log Swept Sine, 1 sweep at -11.0 dBFS with no timing reference
* Dated: Apr 16, 2025 10:57:15 PM
* REW Settings:
*  C-weighting compensation: Off
*  Target level: 75.0 dB
* Note: ; 
* Measurement: Project Meta (Azla Foamax) L
* Smoothing: 1/24 octave
* Frequency Step: 1/48 octave
* Start Frequency: 20.300 Hz
*
* Freq(Hz), SPL(dB), Phase(degrees)
20.299999, 80.601, -1.5461
20.600000, 80.578, -1.8380
20.900000, 80.552, -2.1505
21.200001, 80.529, -2.4737
21.400000, 80.518, -2.7078
21.799999, 80.501, -3.2407
22.000000, 80.493, -3.5371
22.400000, 80.472, -4.1563
22.700001, 80.451, -4.6057
23.000000, 80.425, -5.0095
23.299999, 80.397, -5.3527
23.600000, 80.372, -5.6381
24.000000, 80.348, -5.9628
24.299999, 80.338, -6.1979
24.700001, 80.331, -6.5386
25.000000, 80.325, -6.8223
25.400000, 80.312, -7.2241
25.799999, 80.288, -7.6234
26.200001, 80.256, -7.9986
26.500000, 80.230, -8.2652
26.900000, 80.196, -8.6164
27.200001, 80.172, -8.8881
27.600000, 80.143, -9.2671
28.000000, 80.115, -9.6548
28.500000, 80.080, -10.1183
29.000000, 80.047, -10.5321
29.500000, 80.014, -10.9074
30.000000, 79.979, -11.2822
30.400000, 79.950, -11.6009
30.700001, 79.926, -11.8508
31.100000, 79.895, -12.1877
31.500000, 79.864, -12.5122
32.000000, 79.828, -12.8834
32.500000, 79.795, -13.2209
33.000000, 79.760, -13.5506
33.500000, 79.720, -13.8947
34.000000, 79.673, -14.2531
34.500000, 79.626, -14.6095
35.000000, 79.585, -14.9517
35.500000, 79.552, -15.2833
36.000000, 79.523, -15.6155
36.500000, 79.489, -15.9510
37.000000, 79.445, -16.2777
37.500000, 79.395, -16.5804
38.200001, 79.327, -16.9663
38.700001, 79.286, -17.2389
39.500000, 79.226, -17.7026
40.000000, 79.181, -17.9906
40.599998, 79.121, -18.3044
41.200001, 79.063, -18.5908
41.799999, 79.014, -18.8827
42.500000, 78.963, -19.2383
43.099998, 78.917, -19.5268
43.700001, 78.868, -19.7936
44.400002, 78.807, -20.1257
45.000000, 78.753, -20.4558
45.500000, 78.704, -20.7458
46.200001, 78.632, -21.1194
46.799999, 78.569, -21.3801
47.500000, 78.503, -21.6211
48.200001, 78.447, -21.8273
48.700001, 78.412, -21.9725
49.400002, 78.361, -22.1897
50.000000, 78.308, -22.3987
50.799999, 78.226, -22.7175
51.500000, 78.153, -23.0050
52.200001, 78.091, -23.2495
53.000000, 78.031, -23.4745
53.799999, 77.965, -23.6924
54.500000, 77.896, -23.8859
55.200001, 77.829, -24.0879
56.000000, 77.758, -24.3496
57.000000, 77.662, -24.6442
58.000000, 77.571, -24.8536
59.000000, 77.491, -25.1097
60.000000, 77.399, -25.3267
60.799999, 77.321, -25.4372
61.500000, 77.255, -25.5614
62.200001, 77.191, -25.7219
63.000000, 77.117, -25.8793
64.000000, 77.024, -25.9929
65.000000, 76.933, -26.1020
66.000000, 76.842, -26.2643
67.000000, 76.745, -26.4202
68.000000, 76.648, -26.5118
69.000000, 76.561, -26.6073
70.000000, 76.474, -26.7145
71.000000, 76.387, -26.7866
72.000000, 76.301, -26.8840
73.000000, 76.203, -27.0008
74.000000, 76.102, -27.0592
75.000000, 76.012, -27.0562
76.199997, 75.912, -27.1049
77.500000, 75.797, -27.1760
78.800003, 75.692, -27.1705
80.000000, 75.590, -27.1452
81.199997, 75.481, -27.0791
82.500000, 75.363, -27.0117
83.800003, 75.247, -26.9874
85.000000, 75.142, -26.9506
86.199997, 75.038, -26.8575
87.500000, 74.935, -26.7857
88.500000, 74.859, -26.7407
90.000000, 74.741, -26.5898
91.199997, 74.650, -26.4924
92.500000, 74.548, -26.3707
93.800003, 74.445, -26.1163
95.000000, 74.347, -25.8808
96.199997, 74.240, -25.7213
97.500000, 74.128, -25.5692
98.800003, 74.029, -25.3089
100.000000, 73.941, -25.0619
101.500000, 73.837, -24.8066
103.000000, 73.728, -24.5053
104.400002, 73.617, -24.2037
106.000000, 73.495, -23.8005
107.500000, 73.390, -23.4608
109.000000, 73.288, -23.1102
110.599998, 73.177, -22.7422
112.000000, 73.088, -22.3846
113.800003, 72.979, -21.8879
115.000000, 72.904, -21.5906
117.199997, 72.763, -20.9776
118.000000, 72.714, -20.7544
120.599998, 72.562, -20.0722
122.000000, 72.474, -19.6161
124.099998, 72.358, -18.8505
125.000000, 72.308, -18.5127
126.500000, 72.227, -17.9852
128.000000, 72.150, -17.5238
131.500000, 71.973, -16.4014
132.000000, 71.950, -16.2487
134.000000, 71.870, -15.6746
136.000000, 71.780, -14.9399
138.000000, 71.685, -14.2178
140.000000, 71.610, -13.4841
143.000000, 71.520, -12.4143
145.000000, 71.450, -11.7434
147.500000, 71.353, -10.8435
150.000000, 71.277, -9.9570
152.500000, 71.208, -9.0274
155.000000, 71.147, -8.1269
157.500000, 71.093, -7.2498
160.000000, 71.049, -6.4692
162.500000, 71.006, -5.6069
165.000000, 70.957, -4.6913
167.500000, 70.895, -3.8178
170.000000, 70.846, -3.0213
172.500000, 70.826, -2.2045
175.000000, 70.802, -1.2756
177.500000, 70.769, -0.4141
180.000000, 70.745, 0.4605
182.500000, 70.725, 1.2725
185.000000, 70.702, 1.9650
187.500000, 70.690, 2.6481
190.000000, 70.678, 3.3869
192.500000, 70.665, 4.1408
195.000000, 70.657, 4.9402
197.500000, 70.662, 5.6436
200.000000, 70.663, 6.2925
203.000000, 70.671, 7.0367
206.000000, 70.671, 7.7980
209.000000, 70.661, 8.5854
212.000000, 70.657, 9.3722
214.000000, 70.655, 9.9224
218.000000, 70.668, 10.9677
220.000000, 70.672, 11.4430
224.000000, 70.681, 12.2468
227.000000, 70.697, 12.8362
230.000000, 70.715, 13.4894
233.000000, 70.733, 14.1355
236.000000, 70.746, 14.6790
240.000000, 70.752, 15.4905
243.000000, 70.762, 16.1012
247.000000, 70.785, 16.7878
250.000000, 70.801, 17.3079
254.000000, 70.819, 17.9848
258.000000, 70.836, 18.6651
262.000000, 70.853, 19.3188
265.000000, 70.865, 19.7652
269.000000, 70.884, 20.3757
272.000000, 70.895, 20.8487
276.000000, 70.915, 21.4809
280.000000, 70.941, 22.1079
285.000000, 70.957, 22.8731
290.000000, 70.971, 23.5001
295.000000, 70.994, 24.1364
300.000000, 71.022, 24.7106
304.000000, 71.038, 25.2270
307.000000, 71.048, 25.6362
311.000000, 71.060, 26.1806
315.000000, 71.076, 26.6644
320.000000, 71.094, 27.1809
325.000000, 71.101, 27.7845
330.000000, 71.108, 28.3846
335.000000, 71.121, 28.9671
340.000000, 71.132, 29.5474
345.000000, 71.150, 30.0445
350.000000, 71.170, 30.5209
355.000000, 71.181, 31.0094
360.000000, 71.193, 31.5645
365.000000, 71.201, 32.1169
370.000000, 71.202, 32.6054
375.000000, 71.203, 33.0374
382.000000, 71.219, 33.6617
387.000000, 71.232, 34.1286
395.000000, 71.233, 35.0044
400.000000, 71.231, 35.5516
406.000000, 71.236, 36.1012
412.000000, 71.242, 36.6111
418.000000, 71.246, 37.1587
425.000000, 71.244, 37.7833
431.000000, 71.249, 38.3313
437.000000, 71.251, 38.8995
444.000000, 71.247, 39.5493
450.000000, 71.243, 40.0877
455.000000, 71.242, 40.5322
462.000000, 71.236, 41.1377
468.000000, 71.230, 41.6814
475.000000, 71.226, 42.3083
482.000000, 71.213, 42.9487
487.000000, 71.203, 43.3772
494.000000, 71.191, 43.9667
500.000000, 71.183, 44.4962
508.000000, 71.178, 45.2034
515.000000, 71.167, 45.8124
522.000000, 71.152, 46.3955
530.000000, 71.133, 47.1359
538.000000, 71.122, 47.9304
545.000000, 71.113, 48.5853
552.000000, 71.101, 49.2108
560.000000, 71.089, 49.8884
570.000000, 71.075, 50.7744
580.000000, 71.050, 51.7244
590.000000, 71.032, 52.6136
600.000000, 71.005, 53.5138
608.000000, 70.978, 54.2874
615.000000, 70.957, 54.9292
622.000000, 70.947, 55.5371
630.000000, 70.941, 56.2644
640.000000, 70.923, 57.2444
650.000000, 70.902, 58.2752
660.000000, 70.882, 59.2850
670.000000, 70.857, 60.2138
680.000000, 70.836, 61.1976
690.000000, 70.822, 62.1950
700.000000, 70.803, 63.1402
710.000000, 70.785, 64.0848
720.000000, 70.768, 65.0726
730.000000, 70.744, 66.1338
740.000000, 70.727, 67.1787
750.000000, 70.723, 68.2042
762.000000, 70.717, 69.4770
775.000000, 70.699, 70.7954
788.000000, 70.682, 72.1951
800.000000, 70.674, 73.4468
812.000000, 70.675, 74.7846
825.000000, 70.679, 76.2337
838.000000, 70.689, 77.6459
850.000000, 70.699, 78.9249
862.000000, 70.704, 80.2319
875.000000, 70.711, 81.6490
885.000000, 70.731, 82.7334
900.000000, 70.774, 84.3573
912.000000, 70.805, 85.6320
925.000000, 70.829, 86.9644
938.000000, 70.862, 88.3117
950.000000, 70.902, 89.5780
962.000000, 70.949, 90.8401
975.000000, 71.007, 92.1917
988.000000, 71.067, 93.5665
1000.000000, 71.123, 94.8353
1015.000000, 71.190, 96.1961
1030.000000, 71.264, 97.5141
1044.000000, 71.342, 98.7675
1060.000000, 71.430, 100.1382
1075.000000, 71.507, 101.3826
1090.000000, 71.585, 102.6054
1106.000000, 71.671, 103.8865
1120.000000, 71.746, 104.9901
1138.000000, 71.844, 106.3239
1150.000000, 71.908, 107.1789
1172.000000, 72.020, 108.6922
1180.000000, 72.059, 109.2337
1206.000000, 72.183, 110.9222
1220.000000, 72.247, 111.7861
1241.000000, 72.335, 113.0528
1250.000000, 72.370, 113.6301
1265.000000, 72.429, 114.5672
1280.000000, 72.491, 115.4722
1315.000000, 72.612, 117.5410
1320.000000, 72.626, 117.8309
1340.000000, 72.684, 119.0554
1360.000000, 72.747, 120.2497
1380.000000, 72.810, 121.4552
1400.000000, 72.873, 122.6805
1430.000000, 72.957, 124.4846
1450.000000, 73.010, 125.7258
1475.000000, 73.083, 127.2812
1500.000000, 73.155, 128.8354
1525.000000, 73.227, 130.3700
1550.000000, 73.300, 131.9073
1575.000000, 73.379, 133.4814
1600.000000, 73.465, 135.0886
1625.000000, 73.549, 136.6827
1650.000000, 73.638, 138.2463
1675.000000, 73.727, 139.8250
1700.000000, 73.822, 141.4087
1725.000000, 73.923, 142.9743
1750.000000, 74.025, 144.5331
1775.000000, 74.133, 146.0821
1800.000000, 74.253, 147.5796
1825.000000, 74.379, 149.0700
1850.000000, 74.506, 150.5551
1875.000000, 74.640, 152.0204
1900.000000, 74.782, 153.4637
1925.000000, 74.925, 154.8542
1950.000000, 75.072, 156.2154
1975.000000, 75.229, 157.5349
2000.000000, 75.393, 158.7922
2030.000000, 75.597, 160.2751
2060.000000, 75.808, 161.6909
2090.000000, 76.026, 163.0266
2120.000000, 76.252, 164.2945
2140.000000, 76.403, 165.0781
2180.000000, 76.714, 166.4948
2200.000000, 76.876, 167.1400
2240.000000, 77.205, 168.2925
2270.000000, 77.453, 169.0046
2300.000000, 77.702, 169.5854
2330.000000, 77.951, 170.0336
2360.000000, 78.199, 170.3658
2400.000000, 78.526, 170.5856
2430.000000, 78.765, 170.5457
2470.000000, 79.066, 170.2759
2500.000000, 79.279, 169.8996
2540.000000, 79.535, 169.1794
2580.000000, 79.751, 168.2388
2620.000000, 79.926, 167.0971
2650.000000, 80.029, 166.1585
2690.000000, 80.124, 164.8171
2720.000000, 80.162, 163.7721
2760.000000, 80.166, 162.3748
2800.000000, 80.125, 161.0423
2850.000000, 80.008, 159.5602
2900.000000, 79.831, 158.3318
2950.000000, 79.612, 157.4084
3000.000000, 79.362, 156.8213
3040.000000, 79.147, 156.5888
3070.000000, 78.982, 156.5505
3110.000000, 78.761, 156.6763
3150.000000, 78.539, 156.9813
3200.000000, 78.265, 157.6229
3250.000000, 78.004, 158.5138
3300.000000, 77.763, 159.5824
3350.000000, 77.541, 160.8331
3400.000000, 77.342, 162.2394
3450.000000, 77.168, 163.7589
3500.000000, 77.025, 165.3614
3550.000000, 76.911, 166.9984
3600.000000, 76.822, 168.6187
3650.000000, 76.765, 170.2028
3700.000000, 76.734, 171.7361
3750.000000, 76.728, 173.1654
3820.000000, 76.761, 174.9752
3870.000000, 76.805, 176.0786
3950.000000, 76.905, 177.3976
4000.000000, 76.981, 177.8846
4060.000000, 77.066, 178.0822
4120.000000, 77.122, 177.8667
4180.000000, 77.133, 177.2558
4250.000000, 77.060, 176.2199
4310.000000, 76.901, 175.2991
4370.000000, 76.657, 174.5929
4440.000000, 76.298, 174.3889
4500.000000, 75.978, 174.8702
4550.000000, 75.737, 175.6879
4620.000000, 75.472, 177.1873
4680.000000, 75.325, 178.4968
4750.000000, 75.229, 179.7583
4820.000000, 75.170, -179.4442
4870.000000, 75.125, -179.1625
4940.000000, 75.036, -179.1000
5000.000000, 74.925, -179.2791
5080.000000, 74.722, -179.6737
5150.000000, 74.494, -179.9795
5220.000000, 74.221, 179.8719
5300.000000, 73.877, 179.9364
5380.000000, 73.521, -179.6718
5450.000000, 73.210, -179.0366
5520.000000, 72.911, -178.1870
5600.000000, 72.599, -177.0243
5700.000000, 72.253, -175.3134
5800.000000, 71.971, -173.3223
5900.000000, 71.770, -171.2860
6000.000000, 71.647, -169.2575
6080.000000, 71.603, -167.6790
6150.000000, 71.611, -166.3733
6220.000000, 71.658, -165.1960
6300.000000, 71.759, -164.0467
6400.000000, 71.958, -162.9976
6500.000000, 72.232, -162.4386
6600.000000, 72.559, -162.4830
6700.000000, 72.925, -163.2150
6800.000000, 73.313, -164.6917
6900.000000, 73.682, -167.0368
7000.000000, 73.978, -170.1326
7100.000000, 74.179, -173.6456
7200.000000, 74.284, -177.3784
7300.000000, 74.286, 178.8374
7400.000000, 74.185, 175.2298
7500.000000, 74.002, 172.0587
7620.000000, 73.714, 168.9957
7750.000000, 73.380, 166.6956
7880.000000, 73.077, 165.3028
8000.000000, 72.854, 164.6740
8120.000000, 72.702, 164.5268
8250.000000, 72.630, 164.6499
8380.000000, 72.654, 164.9145
8500.000000, 72.749, 165.0799
8620.000000, 72.895, 164.9854
8750.000000, 73.101, 164.5090
8850.000000, 73.276, 163.8208
9000.000000, 73.512, 162.2465
9120.000000, 73.652, 160.5661
9250.000000, 73.726, 158.4355
9380.000000, 73.697, 156.1695
9500.000000, 73.570, 154.1627
9620.000000, 73.356, 152.4458
9750.000000, 73.052, 151.1021
9880.000000, 72.693, 150.4509
10000.000000, 72.336, 150.4194
10150.000000, 71.899, 151.0350
10300.000000, 71.491, 152.3054
10440.000000, 71.138, 154.0082
10600.000000, 70.774, 156.4346
10750.000000, 70.471, 159.1319
10900.000000, 70.204, 162.3213
11060.000000, 69.993, 166.3155
11200.000000, 69.937, 170.0441
11380.000000, 70.009, 174.4540
11500.000000, 70.103, 177.1036
11720.000000, 70.347, -178.6420
11800.000000, 70.447, -177.3105
12060.000000, 70.798, -173.6013
12200.000000, 71.010, -172.0177
12410.000000, 71.328, -170.4597
12500.000000, 71.449, -170.1425
12650.000000, 71.597, -170.0397
12800.000000, 71.658, -170.2703
13150.000000, 71.450, -170.4463
13200.000000, 71.390, -170.3252
13400.000000, 71.116, -169.4008
13600.000000, 70.847, -167.7484
13800.000000, 70.646, -165.5081
14000.000000, 70.543, -163.0111
14300.000000, 70.577, -159.4510
14500.000000, 70.725, -157.7175
14750.000000, 71.006, -156.7488
15000.000000, 71.305, -157.4508
15250.000000, 71.519, -159.9795
15500.000000, 71.509, -163.8361
15750.000000, 71.198, -168.1122
16000.000000, 70.599, -171.8090
16250.000000, 69.798, -174.1932
16500.000000, 68.934, -175.1637
16750.000000, 68.091, -174.8503
17000.000000, 67.290, -173.6526
17250.000000, 66.558, -171.9447
17500.000000, 65.903, -169.9940
17750.000000, 65.319, -168.3147
18000.000000, 64.775, -167.6837
18250.000000, 64.203, -168.6258
18500.000000, 63.461, -171.4843
18750.000000, 62.356, -176.2885
19000.000000, 60.752, 178.0092
19250.000000, 58.658, 172.7176
19500.000000, 56.238, 167.6641
19750.000000, 53.693, 162.0391
