* Measurement data measured by REW V5.31.3
* Source: Input device not selected, no input selected, L, volume: no control
* Format: 256k Log Swept Sine, 1 sweep at -11.0 dBFS with no timing reference
* Dated: Jun 15, 2025 4:42:30 AM
* REW Settings:
*  C-weighting compensation: Off
*  Target level: 75.0 dB
* Note: ; 
* Measurement: Project Meta (Spring L) L
* Smoothing: 1/24 octave
* Frequency Step: 1/48 octave
* Start Frequency: 20.300 Hz
*
* Freq(Hz), SPL(dB), Phase(degrees)
20.299999, 80.868, -6.2310
20.600000, 80.857, -6.5456
20.900000, 80.841, -6.9554
21.200001, 80.821, -7.4122
21.400000, 80.807, -7.7231
21.799999, 80.777, -8.3084
22.000000, 80.763, -8.5671
22.400000, 80.741, -9.0112
22.700001, 80.728, -9.3003
23.000000, 80.717, -9.5796
23.299999, 80.703, -9.8687
23.600000, 80.685, -10.1740
24.000000, 80.651, -10.5939
24.299999, 80.621, -10.9024
24.700001, 80.581, -11.2923
25.000000, 80.556, -11.5746
25.400000, 80.530, -11.9616
25.799999, 80.507, -12.3826
26.200001, 80.480, -12.8319
26.500000, 80.453, -13.1659
26.900000, 80.410, -13.5705
27.200001, 80.377, -13.8299
27.600000, 80.340, -14.1256
28.000000, 80.314, -14.4040
28.500000, 80.293, -14.7992
29.000000, 80.271, -15.2728
29.500000, 80.234, -15.7739
30.000000, 80.185, -16.2298
30.400000, 80.142, -16.5431
30.700001, 80.110, -16.7557
31.100000, 80.069, -17.0265
31.500000, 80.029, -17.2988
32.000000, 79.977, -17.6536
32.500000, 79.927, -18.0317
33.000000, 79.882, -18.4438
33.500000, 79.845, -18.8908
34.000000, 79.809, -19.3425
34.500000, 79.769, -19.7457
35.000000, 79.720, -20.0678
35.500000, 79.664, -20.3278
36.000000, 79.606, -20.5795
36.500000, 79.549, -20.8630
37.000000, 79.495, -21.1761
37.500000, 79.446, -21.4949
38.200001, 79.384, -21.9307
38.700001, 79.338, -22.2403
39.500000, 79.254, -22.7255
40.000000, 79.201, -23.0092
40.599998, 79.143, -23.3274
41.200001, 79.084, -23.6237
41.799999, 79.020, -23.9141
42.500000, 78.944, -24.3128
43.099998, 78.882, -24.7408
43.700001, 78.820, -25.1814
44.400002, 78.741, -25.5701
45.000000, 78.663, -25.7696
45.500000, 78.587, -25.8801
46.200001, 78.474, -26.0138
46.799999, 78.392, -26.1757
47.500000, 78.321, -26.5086
48.200001, 78.258, -26.9526
48.700001, 78.213, -27.2305
49.400002, 78.162, -27.4911
50.000000, 78.131, -27.6674
50.799999, 78.069, -27.9144
51.500000, 77.980, -28.1034
52.200001, 77.881, -28.3490
53.000000, 77.772, -28.8193
53.799999, 77.663, -29.2544
54.500000, 77.579, -29.4338
55.200001, 77.503, -29.5764
56.000000, 77.410, -29.8876
57.000000, 77.296, -30.3920
58.000000, 77.225, -30.6312
59.000000, 77.182, -30.4828
60.000000, 77.057, -30.5817
60.799999, 76.872, -30.9741
61.500000, 76.754, -31.2804
62.200001, 76.739, -31.4360
63.000000, 76.724, -31.4286
64.000000, 76.468, -31.1494
65.000000, 76.150, -31.1347
66.000000, 76.123, -31.3895
67.000000, 76.078, -30.8997
68.000000, 75.559, -29.8592
69.000000, 75.148, -29.3612
70.000000, 75.507, -30.6961
71.000000, 75.773, -30.9521
72.000000, 75.617, -29.2681
73.000000, 75.305, -29.9512
74.000000, 74.834, -31.0705
75.000000, 74.465, -28.8350
76.199997, 74.411, -25.8918
77.500000, 74.558, -22.6322
78.800003, 74.719, -20.2406
80.000000, 74.487, -22.7313
81.199997, 74.175, -23.5578
82.500000, 73.837, -20.4133
83.800003, 73.644, -18.2331
85.000000, 73.694, -18.1681
86.199997, 74.059, -16.8028
87.500000, 74.661, -15.4870
88.500000, 74.953, -14.5334
90.000000, 74.948, -14.5085
91.199997, 74.880, -16.2473
92.500000, 74.899, -17.8462
93.800003, 74.968, -18.2187
95.000000, 75.057, -19.0632
96.199997, 75.066, -20.3511
97.500000, 74.975, -21.3196
98.800003, 74.880, -22.1250
100.000000, 74.802, -22.6818
101.500000, 74.666, -22.5534
103.000000, 74.491, -22.3478
104.400002, 74.353, -22.5892
106.000000, 74.173, -23.1977
107.500000, 74.016, -23.7668
109.000000, 73.919, -23.7648
110.599998, 73.803, -23.3271
112.000000, 73.674, -23.0390
113.800003, 73.520, -22.8009
115.000000, 73.421, -22.5844
117.199997, 73.230, -22.2290
118.000000, 73.165, -21.9798
120.599998, 72.971, -20.9068
122.000000, 72.866, -20.8983
124.099998, 72.706, -20.6596
125.000000, 72.640, -20.4326
126.500000, 72.542, -19.9981
128.000000, 72.448, -19.5205
131.500000, 72.202, -18.3633
132.000000, 72.169, -18.2239
134.000000, 72.048, -17.6064
136.000000, 71.939, -16.8426
138.000000, 71.833, -16.1388
140.000000, 71.730, -15.4223
143.000000, 71.572, -14.2407
145.000000, 71.474, -13.4913
147.500000, 71.369, -12.6161
150.000000, 71.252, -11.6826
152.500000, 71.138, -10.7181
155.000000, 71.030, -9.6238
157.500000, 70.926, -8.5510
160.000000, 70.811, -7.3342
162.500000, 70.694, -5.9026
165.000000, 70.599, -4.3149
167.500000, 70.528, -2.4969
170.000000, 70.517, -0.4293
172.500000, 70.602, 1.8653
175.000000, 70.800, 3.7710
177.500000, 71.066, 4.8119
180.000000, 71.293, 4.8611
182.500000, 71.435, 4.3750
185.000000, 71.497, 3.8941
187.500000, 71.512, 3.5488
190.000000, 71.485, 3.4490
192.500000, 71.416, 3.5555
195.000000, 71.346, 3.8887
197.500000, 71.304, 4.3363
200.000000, 71.272, 4.7011
203.000000, 71.234, 5.1820
206.000000, 71.195, 5.7738
209.000000, 71.152, 6.3950
212.000000, 71.128, 7.0138
214.000000, 71.117, 7.4569
218.000000, 71.095, 8.3893
220.000000, 71.085, 8.7820
224.000000, 71.064, 9.5284
227.000000, 71.047, 10.1491
230.000000, 71.047, 10.7878
233.000000, 71.058, 11.4051
236.000000, 71.068, 11.9996
240.000000, 71.069, 12.7693
243.000000, 71.072, 13.3323
247.000000, 71.077, 14.0522
250.000000, 71.076, 14.5813
254.000000, 71.081, 15.2680
258.000000, 71.091, 15.9034
262.000000, 71.102, 16.4704
265.000000, 71.113, 16.9290
269.000000, 71.122, 17.5519
272.000000, 71.125, 17.9834
276.000000, 71.130, 18.5486
280.000000, 71.142, 19.1272
285.000000, 71.158, 19.8217
290.000000, 71.176, 20.4791
295.000000, 71.192, 21.1466
300.000000, 71.202, 21.7849
304.000000, 71.206, 22.2670
307.000000, 71.214, 22.6153
311.000000, 71.223, 23.0553
315.000000, 71.227, 23.5036
320.000000, 71.236, 24.0611
325.000000, 71.244, 24.6501
330.000000, 71.246, 25.2639
335.000000, 71.253, 25.8264
340.000000, 71.265, 26.2991
345.000000, 71.272, 26.7876
350.000000, 71.280, 27.3118
355.000000, 71.283, 27.8215
360.000000, 71.284, 28.3141
365.000000, 71.287, 28.8282
370.000000, 71.289, 29.3318
375.000000, 71.292, 29.7930
382.000000, 71.296, 30.4363
387.000000, 71.298, 30.9145
395.000000, 71.292, 31.6353
400.000000, 71.286, 32.0542
406.000000, 71.278, 32.6017
412.000000, 71.277, 33.1767
418.000000, 71.277, 33.7293
425.000000, 71.277, 34.3411
431.000000, 71.275, 34.8863
437.000000, 71.268, 35.4413
444.000000, 71.256, 36.0612
450.000000, 71.249, 36.5930
455.000000, 71.242, 37.0162
462.000000, 71.226, 37.6623
468.000000, 71.212, 38.2328
475.000000, 71.201, 38.8386
482.000000, 71.194, 39.4181
487.000000, 71.185, 39.8381
494.000000, 71.166, 40.4119
500.000000, 71.155, 40.9267
508.000000, 71.141, 41.6157
515.000000, 71.123, 42.2371
522.000000, 71.106, 42.8537
530.000000, 71.085, 43.5696
538.000000, 71.065, 44.2896
545.000000, 71.048, 44.8804
552.000000, 71.033, 45.4655
560.000000, 71.018, 46.1759
570.000000, 70.996, 47.0717
580.000000, 70.968, 47.9321
590.000000, 70.945, 48.8713
600.000000, 70.917, 49.8151
608.000000, 70.893, 50.5643
615.000000, 70.881, 51.2144
622.000000, 70.869, 51.8379
630.000000, 70.847, 52.5681
640.000000, 70.814, 53.5310
650.000000, 70.785, 54.5001
660.000000, 70.766, 55.4377
670.000000, 70.744, 56.3537
680.000000, 70.720, 57.3139
690.000000, 70.698, 58.2889
700.000000, 70.681, 59.2356
710.000000, 70.663, 60.1966
720.000000, 70.640, 61.2122
730.000000, 70.612, 62.2125
740.000000, 70.588, 63.2205
750.000000, 70.572, 64.2376
762.000000, 70.558, 65.4465
775.000000, 70.540, 66.7643
788.000000, 70.532, 68.0782
800.000000, 70.525, 69.2996
812.000000, 70.518, 70.5841
825.000000, 70.516, 71.9769
838.000000, 70.517, 73.3108
850.000000, 70.518, 74.5634
862.000000, 70.522, 75.8462
875.000000, 70.542, 77.2543
885.000000, 70.558, 78.3257
900.000000, 70.574, 79.8685
912.000000, 70.593, 81.1018
925.000000, 70.621, 82.4587
938.000000, 70.656, 83.8406
950.000000, 70.690, 85.0529
962.000000, 70.729, 86.1953
975.000000, 70.780, 87.4040
988.000000, 70.834, 88.6236
1000.000000, 70.882, 89.7572
1015.000000, 70.939, 91.1297
1030.000000, 71.003, 92.4334
1044.000000, 71.064, 93.6329
1060.000000, 71.138, 94.9394
1075.000000, 71.209, 96.1216
1090.000000, 71.278, 97.2896
1106.000000, 71.360, 98.5090
1120.000000, 71.430, 99.5472
1138.000000, 71.512, 100.8304
1150.000000, 71.562, 101.6531
1172.000000, 71.650, 103.0548
1180.000000, 71.681, 103.5637
1206.000000, 71.785, 105.1882
1220.000000, 71.834, 106.0306
1241.000000, 71.899, 107.2896
1250.000000, 71.924, 107.8094
1265.000000, 71.967, 108.6697
1280.000000, 72.012, 109.5424
1315.000000, 72.098, 111.6653
1320.000000, 72.110, 111.9600
1340.000000, 72.157, 113.0980
1360.000000, 72.198, 114.2566
1380.000000, 72.238, 115.4615
1400.000000, 72.277, 116.6743
1430.000000, 72.327, 118.4948
1450.000000, 72.360, 119.6768
1475.000000, 72.407, 121.1851
1500.000000, 72.460, 122.7609
1525.000000, 72.508, 124.3225
1550.000000, 72.559, 125.8761
1575.000000, 72.615, 127.4449
1600.000000, 72.672, 129.0417
1625.000000, 72.730, 130.6480
1650.000000, 72.788, 132.2316
1675.000000, 72.852, 133.7957
1700.000000, 72.928, 135.3737
1725.000000, 73.005, 136.9638
1750.000000, 73.080, 138.5541
1775.000000, 73.160, 140.0970
1800.000000, 73.252, 141.6385
1825.000000, 73.345, 143.1541
1850.000000, 73.439, 144.6584
1875.000000, 73.537, 146.1714
1900.000000, 73.642, 147.6536
1925.000000, 73.751, 149.0869
1950.000000, 73.866, 150.4913
1975.000000, 73.987, 151.8775
2000.000000, 74.104, 153.2445
2030.000000, 74.241, 154.8069
2060.000000, 74.385, 156.3337
2090.000000, 74.531, 157.8427
2120.000000, 74.678, 159.3291
2140.000000, 74.778, 160.3100
2180.000000, 74.976, 162.2679
2200.000000, 75.076, 163.2511
2240.000000, 75.272, 165.3036
2270.000000, 75.428, 166.9819
2300.000000, 75.603, 168.8017
2330.000000, 75.816, 170.7918
2360.000000, 76.096, 172.8794
2400.000000, 76.602, 175.4224
2430.000000, 77.072, 176.7863
2470.000000, 77.753, 177.4932
2500.000000, 78.250, 177.1216
2540.000000, 78.827, 175.6263
2580.000000, 79.269, 173.4307
2620.000000, 79.571, 170.9395
2650.000000, 79.717, 169.0508
2690.000000, 79.827, 166.6344
2720.000000, 79.856, 164.9303
2760.000000, 79.837, 162.8157
2800.000000, 79.761, 160.9095
2850.000000, 79.603, 158.8725
2900.000000, 79.387, 157.1970
2950.000000, 79.123, 155.9080
3000.000000, 78.822, 155.0241
3040.000000, 78.567, 154.5983
3070.000000, 78.372, 154.4555
3110.000000, 78.112, 154.4957
3150.000000, 77.854, 154.7430
3200.000000, 77.545, 155.3014
3250.000000, 77.252, 156.0773
3300.000000, 76.970, 157.0868
3350.000000, 76.704, 158.2760
3400.000000, 76.457, 159.6325
3450.000000, 76.230, 161.1309
3500.000000, 76.026, 162.7487
3550.000000, 75.847, 164.4609
3600.000000, 75.697, 166.2342
3650.000000, 75.575, 168.0157
3700.000000, 75.479, 169.8120
3750.000000, 75.411, 171.5732
3820.000000, 75.360, 173.9296
3870.000000, 75.348, 175.4892
3950.000000, 75.372, 177.7172
4000.000000, 75.405, 178.8785
4060.000000, 75.454, 179.9496
4120.000000, 75.497, -179.3270
4180.000000, 75.519, -178.9326
4250.000000, 75.489, -178.7432
4310.000000, 75.398, -178.6864
4370.000000, 75.247, -178.4933
4440.000000, 75.021, -177.8452
4500.000000, 74.818, -176.8127
4550.000000, 74.673, -175.6168
4620.000000, 74.539, -173.6675
4680.000000, 74.500, -172.0093
4750.000000, 74.526, -170.3437
4820.000000, 74.598, -169.1499
4870.000000, 74.659, -168.6382
4940.000000, 74.735, -168.3736
5000.000000, 74.772, -168.4751
5080.000000, 74.762, -168.9034
5150.000000, 74.695, -169.4636
5220.000000, 74.575, -170.0517
5300.000000, 74.378, -170.6008
5380.000000, 74.129, -170.9056
5450.000000, 73.886, -170.9207
5520.000000, 73.634, -170.6675
5600.000000, 73.346, -170.0780
5700.000000, 73.010, -168.9051
5800.000000, 72.732, -167.2759
5900.000000, 72.524, -165.3589
6000.000000, 72.395, -163.2523
6080.000000, 72.357, -161.4933
6150.000000, 72.379, -159.9712
6220.000000, 72.448, -158.4565
6300.000000, 72.584, -156.7576
6400.000000, 72.854, -154.7927
6500.000000, 73.244, -153.0792
6600.000000, 73.763, -151.8002
6700.000000, 74.433, -151.1130
6800.000000, 75.272, -151.2697
6900.000000, 76.288, -152.9821
7000.000000, 77.374, -157.0450
7100.000000, 78.367, -163.6198
7200.000000, 79.118, -172.4553
7300.000000, 79.481, 177.1694
7400.000000, 79.369, 166.4839
7500.000000, 78.823, 156.9000
7620.000000, 77.805, 148.1487
7750.000000, 76.579, 142.2879
7880.000000, 75.454, 139.3172
8000.000000, 74.592, 138.1952
8120.000000, 73.910, 138.0014
8250.000000, 73.354, 138.3940
8380.000000, 72.961, 138.9143
8500.000000, 72.708, 139.2349
8620.000000, 72.525, 139.2743
8750.000000, 72.358, 138.9361
8850.000000, 72.226, 138.4462
9000.000000, 71.984, 137.3916
9120.000000, 71.726, 136.3757
9250.000000, 71.368, 135.3441
9380.000000, 70.933, 134.6305
9500.000000, 70.464, 134.4415
9620.000000, 69.951, 134.8318
9750.000000, 69.374, 135.9337
9880.000000, 68.788, 137.7131
10000.000000, 68.264, 139.9862
10150.000000, 67.654, 143.6284
10300.000000, 67.103, 148.0177
10440.000000, 66.652, 152.6261
10600.000000, 66.214, 158.5371
10750.000000, 65.867, 164.7896
10900.000000, 65.605, 171.8103
11060.000000, 65.526, -179.7886
11200.000000, 65.686, -172.0999
11380.000000, 66.163, -163.0818
11500.000000, 66.585, -157.7603
11720.000000, 67.484, -149.2780
11800.000000, 67.836, -146.5707
12060.000000, 69.073, -138.6807
12200.000000, 69.808, -134.8859
12410.000000, 71.043, -130.1942
12500.000000, 71.627, -128.6781
12650.000000, 72.650, -127.0462
12800.000000, 73.693, -126.7708
13150.000000, 75.810, -131.7124
13200.000000, 76.036, -132.9440
13400.000000, 76.685, -138.3932
13600.000000, 76.956, -143.5949
13800.000000, 76.991, -147.4462
14000.000000, 76.980, -149.6211
14300.000000, 77.275, -150.6153
14500.000000, 77.889, -151.3119
14750.000000, 79.197, -155.2809
15000.000000, 80.721, -166.4869
15250.000000, 81.389, 173.9668
15500.000000, 80.248, 152.3089
15750.000000, 77.563, 137.1821
16000.000000, 74.391, 131.3397
16250.000000, 71.534, 132.3027
16500.000000, 69.236, 136.8958
16750.000000, 67.446, 143.0661
17000.000000, 66.054, 149.5351
17250.000000, 64.911, 155.6798
17500.000000, 63.889, 161.6091
17750.000000, 62.950, 167.4450
18000.000000, 62.105, 172.9424
18250.000000, 61.325, 177.4628
18500.000000, 60.522, -179.6602
18750.000000, 59.538, -178.6998
19000.000000, 58.191, -178.6521
19250.000000, 56.467, -178.0553
19500.000000, 54.592, -176.6412
19750.000000, 52.910, -176.4475
