* Measurement data measured by REW V5.31.3
* Source: Input device not selected, no input selected, L, volume: no control
* Format: 256k Log Swept Sine, 1 sweep at -11.0 dBFS with no timing reference
* Dated: Apr 16, 2025 10:30:44 PM
* REW Settings:
*  C-weighting compensation: Off
*  Target level: 75.0 dB
* Note: ; 
* Measurement: Project Meta (Foam M) L
* Smoothing: 1/24 octave
* Frequency Step: 1/48 octave
* Start Frequency: 20.300 Hz
*
* Freq(Hz), SPL(dB), Phase(degrees)
20.299999, 80.568, -1.2660
20.600000, 80.556, -1.5599
20.900000, 80.539, -1.8809
21.200001, 80.519, -2.2018
21.400000, 80.506, -2.4161
21.799999, 80.482, -2.8419
22.000000, 80.472, -3.0508
22.400000, 80.457, -3.4605
22.700001, 80.450, -3.7687
23.000000, 80.445, -4.0881
23.299999, 80.440, -4.4244
23.600000, 80.429, -4.7749
24.000000, 80.405, -5.2457
24.299999, 80.379, -5.5847
24.700001, 80.341, -6.0046
25.000000, 80.313, -6.2985
25.400000, 80.283, -6.6784
25.799999, 80.259, -7.0605
26.200001, 80.240, -7.4455
26.500000, 80.226, -7.7282
26.900000, 80.205, -8.0867
27.200001, 80.189, -8.3414
27.600000, 80.165, -8.6722
28.000000, 80.141, -9.0091
28.500000, 80.108, -9.4516
29.000000, 80.073, -9.9023
29.500000, 80.036, -10.3276
30.000000, 80.000, -10.7076
30.400000, 79.971, -10.9848
30.700001, 79.950, -11.1859
31.100000, 79.920, -11.4553
31.500000, 79.888, -11.7334
32.000000, 79.848, -12.0943
32.500000, 79.810, -12.4667
33.000000, 79.776, -12.8482
33.500000, 79.743, -13.2332
34.000000, 79.710, -13.6077
34.500000, 79.676, -13.9580
35.000000, 79.643, -14.2856
35.500000, 79.610, -14.6044
36.000000, 79.571, -14.9193
36.500000, 79.525, -15.2183
37.000000, 79.476, -15.4945
37.500000, 79.431, -15.7687
38.200001, 79.379, -16.2033
38.700001, 79.343, -16.5381
39.500000, 79.278, -16.9972
40.000000, 79.234, -17.2168
40.599998, 79.182, -17.4744
41.200001, 79.132, -17.7821
41.799999, 79.083, -18.1254
42.500000, 79.030, -18.4955
43.099998, 78.986, -18.7541
43.700001, 78.940, -18.9876
44.400002, 78.882, -19.2974
45.000000, 78.828, -19.6056
45.500000, 78.782, -19.8550
46.200001, 78.722, -20.1428
46.799999, 78.676, -20.3544
47.500000, 78.620, -20.6242
48.200001, 78.556, -20.9243
48.700001, 78.508, -21.1342
49.400002, 78.443, -21.4050
50.000000, 78.388, -21.6142
50.799999, 78.315, -21.8663
51.500000, 78.251, -22.0875
52.200001, 78.189, -22.3223
53.000000, 78.123, -22.5785
53.799999, 78.062, -22.8059
54.500000, 78.009, -22.9873
55.200001, 77.955, -23.1588
56.000000, 77.890, -23.3846
57.000000, 77.796, -23.7213
58.000000, 77.693, -23.9345
59.000000, 77.603, -24.0956
60.000000, 77.508, -24.4070
60.799999, 77.429, -24.6484
61.500000, 77.371, -24.7974
62.200001, 77.319, -24.9204
63.000000, 77.254, -25.0591
64.000000, 77.164, -25.2522
65.000000, 77.071, -25.4551
66.000000, 76.979, -25.6062
67.000000, 76.888, -25.7478
68.000000, 76.799, -25.8556
69.000000, 76.719, -25.9264
70.000000, 76.634, -26.0093
71.000000, 76.546, -26.0821
72.000000, 76.460, -26.1794
73.000000, 76.370, -26.2794
74.000000, 76.284, -26.3407
75.000000, 76.203, -26.3594
76.199997, 76.102, -26.3750
77.500000, 75.986, -26.4176
78.800003, 75.876, -26.4108
80.000000, 75.768, -26.4250
81.199997, 75.658, -26.4301
82.500000, 75.549, -26.3923
83.800003, 75.437, -26.3678
85.000000, 75.341, -26.3424
86.199997, 75.248, -26.2891
87.500000, 75.138, -26.1785
88.500000, 75.049, -26.0895
90.000000, 74.926, -25.9180
91.199997, 74.843, -25.7849
92.500000, 74.745, -25.6697
93.800003, 74.637, -25.5373
95.000000, 74.538, -25.4136
96.199997, 74.442, -25.2650
97.500000, 74.340, -25.0593
98.800003, 74.240, -24.8415
100.000000, 74.151, -24.6139
101.500000, 74.044, -24.3026
103.000000, 73.929, -24.0061
104.400002, 73.828, -23.7518
106.000000, 73.719, -23.4863
107.500000, 73.619, -23.1669
109.000000, 73.516, -22.8125
110.599998, 73.410, -22.4777
112.000000, 73.316, -22.1714
113.800003, 73.200, -21.6727
115.000000, 73.132, -21.3232
117.199997, 73.003, -20.6772
118.000000, 72.954, -20.4412
120.599998, 72.799, -19.7286
122.000000, 72.720, -19.3219
124.099998, 72.606, -18.7589
125.000000, 72.559, -18.4969
126.500000, 72.477, -18.0370
128.000000, 72.390, -17.5854
131.500000, 72.231, -16.5013
132.000000, 72.211, -16.3435
134.000000, 72.123, -15.6723
136.000000, 72.028, -15.0275
138.000000, 71.939, -14.4450
140.000000, 71.862, -13.7514
143.000000, 71.755, -12.5915
145.000000, 71.675, -11.9225
147.500000, 71.578, -11.1032
150.000000, 71.504, -10.2012
152.500000, 71.444, -9.2736
155.000000, 71.373, -8.4160
157.500000, 71.311, -7.6428
160.000000, 71.249, -6.7715
162.500000, 71.181, -5.9235
165.000000, 71.127, -5.0987
167.500000, 71.084, -4.2644
170.000000, 71.051, -3.4295
172.500000, 71.024, -2.6397
175.000000, 70.997, -1.8232
177.500000, 70.963, -1.0352
180.000000, 70.921, -0.2404
182.500000, 70.897, 0.5330
185.000000, 70.878, 1.2923
187.500000, 70.854, 2.0757
190.000000, 70.836, 2.7734
192.500000, 70.819, 3.4758
195.000000, 70.805, 4.2590
197.500000, 70.793, 4.9972
200.000000, 70.781, 5.6464
203.000000, 70.781, 6.3923
206.000000, 70.780, 7.1963
209.000000, 70.774, 7.9716
212.000000, 70.783, 8.7019
214.000000, 70.793, 9.1822
218.000000, 70.801, 10.1796
220.000000, 70.805, 10.6449
224.000000, 70.810, 11.4386
227.000000, 70.808, 12.0263
230.000000, 70.811, 12.7595
233.000000, 70.823, 13.4981
236.000000, 70.845, 14.1473
240.000000, 70.866, 14.9710
243.000000, 70.874, 15.5271
247.000000, 70.892, 16.1888
250.000000, 70.907, 16.7072
254.000000, 70.925, 17.3941
258.000000, 70.938, 18.0501
262.000000, 70.951, 18.7144
265.000000, 70.964, 19.1875
269.000000, 70.976, 19.8075
272.000000, 70.981, 20.2974
276.000000, 70.992, 20.9265
280.000000, 71.009, 21.4785
285.000000, 71.034, 22.1550
290.000000, 71.056, 22.9123
295.000000, 71.067, 23.5715
300.000000, 71.089, 24.1850
304.000000, 71.109, 24.6565
307.000000, 71.120, 24.9767
311.000000, 71.134, 25.5110
315.000000, 71.143, 26.0723
320.000000, 71.156, 26.6428
325.000000, 71.170, 27.2147
330.000000, 71.181, 27.8270
335.000000, 71.193, 28.4033
340.000000, 71.200, 28.9604
345.000000, 71.210, 29.4692
350.000000, 71.224, 29.9525
355.000000, 71.237, 30.4973
360.000000, 71.243, 31.0482
365.000000, 71.245, 31.5769
370.000000, 71.255, 32.0223
375.000000, 71.266, 32.4853
382.000000, 71.261, 33.1831
387.000000, 71.257, 33.6769
395.000000, 71.260, 34.4982
400.000000, 71.265, 34.9396
406.000000, 71.268, 35.4480
412.000000, 71.264, 35.9892
418.000000, 71.254, 36.5282
425.000000, 71.240, 37.2189
431.000000, 71.237, 37.7734
437.000000, 71.233, 38.3448
444.000000, 71.236, 39.0092
450.000000, 71.243, 39.5604
455.000000, 71.243, 40.0391
462.000000, 71.234, 40.6798
468.000000, 71.222, 41.2030
475.000000, 71.210, 41.8713
482.000000, 71.198, 42.4757
487.000000, 71.185, 42.8970
494.000000, 71.172, 43.5310
500.000000, 71.160, 44.0757
508.000000, 71.145, 44.8280
515.000000, 71.135, 45.4850
522.000000, 71.118, 46.1437
530.000000, 71.100, 46.9023
538.000000, 71.081, 47.6200
545.000000, 71.069, 48.2828
552.000000, 71.058, 48.9464
560.000000, 71.041, 49.6349
570.000000, 71.014, 50.4953
580.000000, 70.989, 51.4338
590.000000, 70.969, 52.4328
600.000000, 70.942, 53.4296
608.000000, 70.917, 54.1592
615.000000, 70.900, 54.8072
622.000000, 70.888, 55.4866
630.000000, 70.873, 56.2427
640.000000, 70.852, 57.1992
650.000000, 70.833, 58.1945
660.000000, 70.816, 59.1803
670.000000, 70.796, 60.1885
680.000000, 70.769, 61.1822
690.000000, 70.747, 62.1907
700.000000, 70.730, 63.1991
710.000000, 70.713, 64.2622
720.000000, 70.694, 65.2835
730.000000, 70.670, 66.3053
740.000000, 70.653, 67.3643
750.000000, 70.638, 68.4162
762.000000, 70.618, 69.6326
775.000000, 70.606, 70.9909
788.000000, 70.603, 72.4112
800.000000, 70.590, 73.7442
812.000000, 70.581, 75.0293
825.000000, 70.577, 76.4415
838.000000, 70.582, 77.8871
850.000000, 70.594, 79.2296
862.000000, 70.612, 80.6012
875.000000, 70.624, 82.0295
885.000000, 70.635, 83.1016
900.000000, 70.661, 84.7424
912.000000, 70.685, 86.0782
925.000000, 70.718, 87.5060
938.000000, 70.755, 88.9017
950.000000, 70.796, 90.1351
962.000000, 70.840, 91.3874
975.000000, 70.900, 92.7478
988.000000, 70.966, 94.0915
1000.000000, 71.020, 95.3311
1015.000000, 71.083, 96.7525
1030.000000, 71.154, 98.1037
1044.000000, 71.228, 99.3297
1060.000000, 71.319, 100.7008
1075.000000, 71.394, 101.9858
1090.000000, 71.469, 103.2592
1106.000000, 71.562, 104.5529
1120.000000, 71.638, 105.6214
1138.000000, 71.736, 106.9256
1150.000000, 71.798, 107.7742
1172.000000, 71.901, 109.2973
1180.000000, 71.939, 109.8405
1206.000000, 72.060, 111.5734
1220.000000, 72.121, 112.4958
1241.000000, 72.216, 113.8197
1250.000000, 72.256, 114.3505
1265.000000, 72.317, 115.2240
1280.000000, 72.371, 116.1171
1315.000000, 72.491, 118.2119
1320.000000, 72.507, 118.5149
1340.000000, 72.566, 119.7715
1360.000000, 72.623, 121.0079
1380.000000, 72.676, 122.1919
1400.000000, 72.728, 123.3349
1430.000000, 72.805, 125.2054
1450.000000, 72.854, 126.4671
1475.000000, 72.924, 127.9767
1500.000000, 72.986, 129.5471
1525.000000, 73.043, 131.1376
1550.000000, 73.108, 132.7489
1575.000000, 73.176, 134.3408
1600.000000, 73.249, 135.9547
1625.000000, 73.331, 137.5990
1650.000000, 73.413, 139.2114
1675.000000, 73.494, 140.8398
1700.000000, 73.581, 142.4434
1725.000000, 73.673, 144.0292
1750.000000, 73.768, 145.6395
1775.000000, 73.871, 147.2325
1800.000000, 73.978, 148.8384
1825.000000, 74.090, 150.3993
1850.000000, 74.210, 151.9232
1875.000000, 74.336, 153.4088
1900.000000, 74.469, 154.8650
1925.000000, 74.604, 156.3293
1950.000000, 74.747, 157.7877
1975.000000, 74.901, 159.1925
2000.000000, 75.054, 160.5566
2030.000000, 75.244, 162.1113
2060.000000, 75.450, 163.6121
2090.000000, 75.661, 165.0224
2120.000000, 75.873, 166.3815
2140.000000, 76.019, 167.2530
2180.000000, 76.325, 168.8479
2200.000000, 76.482, 169.5656
2240.000000, 76.801, 170.8786
2270.000000, 77.046, 171.7593
2300.000000, 77.294, 172.4848
2330.000000, 77.542, 173.0801
2360.000000, 77.790, 173.5475
2400.000000, 78.116, 173.9284
2430.000000, 78.356, 174.0492
2470.000000, 78.662, 173.9850
2500.000000, 78.878, 173.7607
2540.000000, 79.146, 173.2471
2580.000000, 79.382, 172.4755
2620.000000, 79.578, 171.4971
2650.000000, 79.697, 170.6552
2690.000000, 79.813, 169.4090
2720.000000, 79.869, 168.4267
2760.000000, 79.900, 167.1011
2800.000000, 79.881, 165.7955
2850.000000, 79.787, 164.3076
2900.000000, 79.631, 163.0246
2950.000000, 79.424, 162.0307
3000.000000, 79.177, 161.3835
3040.000000, 78.964, 161.1176
3070.000000, 78.798, 161.0474
3110.000000, 78.570, 161.1351
3150.000000, 78.339, 161.4423
3200.000000, 78.056, 162.0951
3250.000000, 77.785, 162.9837
3300.000000, 77.530, 164.0999
3350.000000, 77.293, 165.4440
3400.000000, 77.083, 166.9278
3450.000000, 76.899, 168.5188
3500.000000, 76.737, 170.2142
3550.000000, 76.599, 171.9906
3600.000000, 76.489, 173.7825
3650.000000, 76.406, 175.5534
3700.000000, 76.349, 177.2946
3750.000000, 76.320, 178.9966
3820.000000, 76.327, -178.7630
3870.000000, 76.358, -177.2978
3950.000000, 76.446, -175.3110
4000.000000, 76.517, -174.3426
4060.000000, 76.615, -173.4514
4120.000000, 76.712, -172.9587
4180.000000, 76.784, -172.8395
4250.000000, 76.817, -173.1064
4310.000000, 76.783, -173.6010
4370.000000, 76.676, -174.1500
4440.000000, 76.467, -174.5435
4500.000000, 76.241, -174.4772
4550.000000, 76.047, -174.0415
4620.000000, 75.805, -172.9743
4680.000000, 75.651, -171.8482
4750.000000, 75.546, -170.5745
4820.000000, 75.495, -169.6339
4870.000000, 75.469, -169.2390
4940.000000, 75.419, -169.0562
5000.000000, 75.344, -169.1503
5080.000000, 75.193, -169.4753
5150.000000, 75.009, -169.8045
5220.000000, 74.777, -170.0295
5300.000000, 74.467, -170.0654
5380.000000, 74.128, -169.7869
5450.000000, 73.826, -169.2567
5520.000000, 73.528, -168.4571
5600.000000, 73.204, -167.2438
5700.000000, 72.851, -165.3669
5800.000000, 72.575, -163.1566
5900.000000, 72.375, -160.7367
6000.000000, 72.262, -158.2664
6080.000000, 72.240, -156.2722
6150.000000, 72.274, -154.5655
6220.000000, 72.357, -152.9302
6300.000000, 72.513, -151.2161
6400.000000, 72.806, -149.4252
6500.000000, 73.207, -148.1089
6600.000000, 73.708, -147.4645
6700.000000, 74.298, -147.6735
6800.000000, 74.954, -148.9609
6900.000000, 75.644, -151.5607
7000.000000, 76.289, -155.6174
7100.000000, 76.800, -160.9857
7200.000000, 77.106, -167.2934
7300.000000, 77.167, -173.9861
7400.000000, 76.986, 179.5857
7500.000000, 76.602, 174.0220
7620.000000, 75.975, 168.9674
7750.000000, 75.244, 165.5468
7880.000000, 74.583, 163.9176
8000.000000, 74.091, 163.5456
8120.000000, 73.718, 163.9142
8250.000000, 73.464, 164.7724
8380.000000, 73.359, 165.7927
8500.000000, 73.372, 166.6575
8620.000000, 73.470, 167.2840
8750.000000, 73.645, 167.4980
8850.000000, 73.807, 167.2441
9000.000000, 74.049, 166.1566
9120.000000, 74.193, 164.7224
9250.000000, 74.264, 162.7849
9380.000000, 74.226, 160.7115
9500.000000, 74.091, 158.8855
9620.000000, 73.863, 157.4032
9750.000000, 73.536, 156.4008
9880.000000, 73.159, 156.0989
10000.000000, 72.796, 156.4677
10150.000000, 72.357, 157.7457
10300.000000, 71.959, 159.7934
10440.000000, 71.648, 162.2572
10600.000000, 71.365, 165.5647
10750.000000, 71.169, 169.0809
10900.000000, 71.055, 172.9998
11060.000000, 71.037, 177.5280
11200.000000, 71.147, -178.3491
11380.000000, 71.478, -173.6019
11500.000000, 71.766, -171.0863
11720.000000, 72.342, -167.6118
11800.000000, 72.555, -166.6434
12060.000000, 73.236, -164.3958
12200.000000, 73.604, -163.8149
12410.000000, 74.114, -164.0773
12500.000000, 74.289, -164.6538
12650.000000, 74.479, -166.0725
12800.000000, 74.519, -167.6905
13150.000000, 74.170, -169.7922
13200.000000, 74.094, -169.7645
13400.000000, 73.811, -168.8378
13600.000000, 73.629, -166.9973
13800.000000, 73.610, -164.7935
14000.000000, 73.782, -162.7094
14300.000000, 74.420, -161.1870
14500.000000, 75.046, -162.4969
14750.000000, 75.787, -168.1333
15000.000000, 76.046, -177.8564
15250.000000, 75.464, 171.0000
15500.000000, 74.084, 162.0741
15750.000000, 72.283, 157.4408
16000.000000, 70.457, 156.9973
16250.000000, 68.844, 159.5919
16500.000000, 67.524, 163.9831
16750.000000, 66.489, 169.1235
17000.000000, 65.712, 174.3914
17250.000000, 65.124, 179.3235
17500.000000, 64.637, -176.2914
17750.000000, 64.229, -172.4447
18000.000000, 63.915, -169.6618
18250.000000, 63.668, -168.6661
18500.000000, 63.363, -170.3899
18750.000000, 62.791, -175.3679
19000.000000, 61.705, 176.9666
19250.000000, 59.923, 168.3027
19500.000000, 57.518, 160.0711
19750.000000, 54.873, 152.3167
