* Measurement data measured by REW V5.31.3
* Source: Input device not selected, no input selected, L, volume: no control
* Format: 256k Log Swept Sine, 1 sweep at -11.0 dBFS with no timing reference
* Dated: Apr 16, 2025 10:32:25 PM
* REW Settings:
*  C-weighting compensation: Off
*  Target level: 75.0 dB
* Note: ; 
* Measurement: Project Meta (Stock M) L
* Smoothing: 1/24 octave
* Frequency Step: 1/48 octave
* Start Frequency: 20.300 Hz
*
* Freq(Hz), SPL(dB), Phase(degrees)
20.299999, 80.547, -2.7361
20.600000, 80.535, -2.9966
20.900000, 80.515, -3.2579
21.200001, 80.492, -3.5056
21.400000, 80.477, -3.6764
21.799999, 80.451, -4.0676
22.000000, 80.442, -4.2991
22.400000, 80.430, -4.8367
22.700001, 80.425, -5.2854
23.000000, 80.419, -5.7400
23.299999, 80.410, -6.1659
23.600000, 80.397, -6.5351
24.000000, 80.375, -6.9214
24.299999, 80.355, -7.1448
24.700001, 80.326, -7.4053
25.000000, 80.305, -7.6118
25.400000, 80.276, -7.9399
25.799999, 80.246, -8.3310
26.200001, 80.217, -8.7525
26.500000, 80.197, -9.0622
26.900000, 80.172, -9.4420
27.200001, 80.154, -9.6979
27.600000, 80.131, -10.0092
28.000000, 80.106, -10.3056
28.500000, 80.072, -10.6831
29.000000, 80.038, -11.0844
29.500000, 80.008, -11.4979
30.000000, 79.979, -11.8901
30.400000, 79.955, -12.1691
30.700001, 79.935, -12.3590
31.100000, 79.906, -12.6014
31.500000, 79.875, -12.8564
32.000000, 79.833, -13.2181
32.500000, 79.792, -13.6178
33.000000, 79.756, -14.0134
33.500000, 79.725, -14.3713
34.000000, 79.695, -14.6897
34.500000, 79.660, -14.9899
35.000000, 79.617, -15.2984
35.500000, 79.573, -15.6402
36.000000, 79.534, -16.0274
36.500000, 79.499, -16.4379
37.000000, 79.464, -16.8131
37.500000, 79.426, -17.0958
38.200001, 79.368, -17.3458
38.700001, 79.328, -17.5044
39.500000, 79.260, -17.8492
40.000000, 79.216, -18.0941
40.599998, 79.169, -18.3768
41.200001, 79.127, -18.6700
41.799999, 79.084, -18.9962
42.500000, 79.027, -19.3724
43.099998, 78.979, -19.6611
43.700001, 78.932, -19.9445
44.400002, 78.864, -20.2705
45.000000, 78.795, -20.5038
45.500000, 78.739, -20.6736
46.200001, 78.670, -20.9519
46.799999, 78.618, -21.2436
47.500000, 78.568, -21.5705
48.200001, 78.532, -21.8380
48.700001, 78.509, -22.0002
49.400002, 78.463, -22.1741
50.000000, 78.405, -22.2718
50.799999, 78.314, -22.4493
51.500000, 78.238, -22.7653
52.200001, 78.174, -23.1662
53.000000, 78.116, -23.5079
53.799999, 78.058, -23.6846
54.500000, 77.986, -23.8898
55.200001, 77.887, -24.2113
56.000000, 77.772, -24.5205
57.000000, 77.706, -24.6576
58.000000, 77.674, -24.7864
59.000000, 77.598, -24.8940
60.000000, 77.511, -25.0532
60.799999, 77.441, -25.2611
61.500000, 77.376, -25.4072
62.200001, 77.316, -25.5112
63.000000, 77.252, -25.6371
64.000000, 77.170, -25.8060
65.000000, 77.081, -25.9402
66.000000, 76.993, -26.0560
67.000000, 76.908, -26.2254
68.000000, 76.816, -26.4126
69.000000, 76.725, -26.5249
70.000000, 76.642, -26.6344
71.000000, 76.554, -26.7825
72.000000, 76.461, -26.8881
73.000000, 76.374, -26.9551
74.000000, 76.286, -27.0113
75.000000, 76.192, -27.0420
76.199997, 76.076, -27.0828
77.500000, 75.962, -27.1192
78.800003, 75.860, -27.1074
80.000000, 75.758, -27.0378
81.199997, 75.662, -27.0629
82.500000, 75.555, -27.1132
83.800003, 75.447, -27.0519
85.000000, 75.342, -26.9918
86.199997, 75.245, -26.8762
87.500000, 75.140, -26.7485
88.500000, 75.058, -26.6461
90.000000, 74.938, -26.5586
91.199997, 74.841, -26.5034
92.500000, 74.737, -26.4384
93.800003, 74.631, -26.2867
95.000000, 74.536, -26.0645
96.199997, 74.447, -25.8720
97.500000, 74.349, -25.7257
98.800003, 74.250, -25.5015
100.000000, 74.160, -25.2782
101.500000, 74.051, -25.0536
103.000000, 73.945, -24.8117
104.400002, 73.845, -24.5148
106.000000, 73.724, -24.1947
107.500000, 73.617, -23.9085
109.000000, 73.521, -23.6030
110.599998, 73.417, -23.2299
112.000000, 73.321, -22.8176
113.800003, 73.197, -22.3111
115.000000, 73.124, -22.0423
117.199997, 72.996, -21.4897
118.000000, 72.947, -21.2570
120.599998, 72.782, -20.4610
122.000000, 72.713, -20.0696
124.099998, 72.614, -19.5010
125.000000, 72.566, -19.2206
126.500000, 72.486, -18.7184
128.000000, 72.406, -18.2412
131.500000, 72.213, -17.1497
132.000000, 72.187, -17.0154
134.000000, 72.096, -16.4885
136.000000, 72.009, -15.8220
138.000000, 71.915, -15.1282
140.000000, 71.831, -14.4380
143.000000, 71.732, -13.3879
145.000000, 71.668, -12.7352
147.500000, 71.581, -11.9137
150.000000, 71.503, -11.0613
152.500000, 71.427, -10.2135
155.000000, 71.353, -9.3173
157.500000, 71.288, -8.4177
160.000000, 71.230, -7.5812
162.500000, 71.182, -6.7153
165.000000, 71.130, -5.8669
167.500000, 71.067, -5.0376
170.000000, 71.020, -4.1855
172.500000, 70.990, -3.4021
175.000000, 70.966, -2.6632
177.500000, 70.938, -1.9012
180.000000, 70.908, -1.1034
182.500000, 70.872, -0.2604
185.000000, 70.845, 0.5408
187.500000, 70.830, 1.2438
190.000000, 70.818, 1.9424
192.500000, 70.805, 2.6882
195.000000, 70.791, 3.3934
197.500000, 70.775, 3.9852
200.000000, 70.771, 4.6707
203.000000, 70.775, 5.5774
206.000000, 70.780, 6.4312
209.000000, 70.771, 7.1580
212.000000, 70.768, 7.8334
214.000000, 70.768, 8.3381
218.000000, 70.765, 9.2765
220.000000, 70.762, 9.7383
224.000000, 70.764, 10.7270
227.000000, 70.781, 11.3783
230.000000, 70.796, 11.9782
233.000000, 70.800, 12.5467
236.000000, 70.803, 13.1217
240.000000, 70.819, 13.9707
243.000000, 70.828, 14.5493
247.000000, 70.837, 15.2215
250.000000, 70.851, 15.6933
254.000000, 70.874, 16.4071
258.000000, 70.889, 17.0520
262.000000, 70.908, 17.6578
265.000000, 70.928, 18.1447
269.000000, 70.939, 18.8375
272.000000, 70.942, 19.3433
276.000000, 70.948, 19.9745
280.000000, 70.956, 20.5627
285.000000, 70.970, 21.1899
290.000000, 70.981, 21.7990
295.000000, 70.989, 22.5232
300.000000, 70.999, 23.2363
304.000000, 71.006, 23.7536
307.000000, 71.010, 24.1578
311.000000, 71.016, 24.6800
315.000000, 71.024, 25.1653
320.000000, 71.035, 25.8286
325.000000, 71.045, 26.5403
330.000000, 71.063, 27.2445
335.000000, 71.078, 27.9039
340.000000, 71.095, 28.5839
345.000000, 71.116, 29.2027
350.000000, 71.143, 29.6763
355.000000, 71.171, 30.2030
360.000000, 71.189, 30.7030
365.000000, 71.200, 31.1581
370.000000, 71.211, 31.6339
375.000000, 71.222, 32.1064
382.000000, 71.231, 32.7671
387.000000, 71.233, 33.2211
395.000000, 71.237, 33.8601
400.000000, 71.247, 34.2578
406.000000, 71.258, 34.7829
412.000000, 71.257, 35.3321
418.000000, 71.253, 35.8565
425.000000, 71.249, 36.4886
431.000000, 71.237, 36.9936
437.000000, 71.223, 37.5287
444.000000, 71.210, 38.1481
450.000000, 71.205, 38.7179
455.000000, 71.206, 39.1854
462.000000, 71.199, 39.8200
468.000000, 71.191, 40.3376
475.000000, 71.181, 40.9356
482.000000, 71.166, 41.5440
487.000000, 71.156, 41.9903
494.000000, 71.146, 42.6278
500.000000, 71.140, 43.1854
508.000000, 71.121, 43.9589
515.000000, 71.099, 44.5915
522.000000, 71.091, 45.2194
530.000000, 71.078, 45.9401
538.000000, 71.055, 46.6505
545.000000, 71.034, 47.2678
552.000000, 71.018, 47.8882
560.000000, 71.000, 48.6442
570.000000, 70.988, 49.6040
580.000000, 70.962, 50.5177
590.000000, 70.935, 51.4261
600.000000, 70.919, 52.3385
608.000000, 70.901, 53.1523
615.000000, 70.886, 53.8112
622.000000, 70.873, 54.4298
630.000000, 70.858, 55.1586
640.000000, 70.832, 56.0961
650.000000, 70.797, 57.0180
660.000000, 70.772, 57.9758
670.000000, 70.755, 58.9420
680.000000, 70.736, 59.9379
690.000000, 70.720, 60.8770
700.000000, 70.697, 61.8004
710.000000, 70.666, 62.7277
720.000000, 70.629, 63.7335
730.000000, 70.597, 64.8285
740.000000, 70.572, 65.9362
750.000000, 70.554, 66.9928
762.000000, 70.535, 68.2287
775.000000, 70.519, 69.6353
788.000000, 70.507, 71.1488
800.000000, 70.498, 72.4843
812.000000, 70.500, 73.8352
825.000000, 70.496, 75.2763
838.000000, 70.496, 76.7274
850.000000, 70.505, 78.0201
862.000000, 70.513, 79.3185
875.000000, 70.530, 80.8037
885.000000, 70.549, 81.9379
900.000000, 70.570, 83.5736
912.000000, 70.596, 84.8602
925.000000, 70.641, 86.2621
938.000000, 70.687, 87.6825
950.000000, 70.724, 88.9717
962.000000, 70.766, 90.2248
975.000000, 70.816, 91.5359
988.000000, 70.864, 92.8087
1000.000000, 70.915, 93.9791
1015.000000, 71.005, 95.4394
1030.000000, 71.089, 96.8534
1044.000000, 71.158, 98.1272
1060.000000, 71.245, 99.5377
1075.000000, 71.329, 100.7846
1090.000000, 71.411, 102.0169
1106.000000, 71.497, 103.3221
1120.000000, 71.572, 104.3748
1138.000000, 71.667, 105.6597
1150.000000, 71.731, 106.5133
1172.000000, 71.845, 108.0382
1180.000000, 71.885, 108.5560
1206.000000, 72.013, 110.2381
1220.000000, 72.076, 111.1351
1241.000000, 72.168, 112.4310
1250.000000, 72.206, 112.9943
1265.000000, 72.264, 113.9354
1280.000000, 72.318, 114.8159
1315.000000, 72.440, 116.8084
1320.000000, 72.456, 117.0949
1340.000000, 72.512, 118.2807
1360.000000, 72.570, 119.4563
1380.000000, 72.630, 120.6400
1400.000000, 72.687, 121.8126
1430.000000, 72.765, 123.5357
1450.000000, 72.815, 124.7382
1475.000000, 72.882, 126.2866
1500.000000, 72.948, 127.8092
1525.000000, 73.014, 129.2962
1550.000000, 73.073, 130.8589
1575.000000, 73.135, 132.4664
1600.000000, 73.204, 134.0421
1625.000000, 73.280, 135.5590
1650.000000, 73.355, 137.1407
1675.000000, 73.435, 138.7460
1700.000000, 73.526, 140.3227
1725.000000, 73.618, 141.9046
1750.000000, 73.711, 143.4343
1775.000000, 73.815, 144.9501
1800.000000, 73.927, 146.4663
1825.000000, 74.036, 148.0041
1850.000000, 74.150, 149.5532
1875.000000, 74.272, 151.0504
1900.000000, 74.400, 152.4893
1925.000000, 74.534, 153.8916
1950.000000, 74.670, 155.2819
1975.000000, 74.813, 156.6741
2000.000000, 74.963, 158.0194
2030.000000, 75.149, 159.5072
2060.000000, 75.346, 160.9150
2090.000000, 75.551, 162.3002
2120.000000, 75.762, 163.6211
2140.000000, 75.905, 164.4669
2180.000000, 76.202, 166.0215
2200.000000, 76.355, 166.7193
2240.000000, 76.664, 167.9948
2270.000000, 76.901, 168.8182
2300.000000, 77.142, 169.5083
2330.000000, 77.386, 170.0839
2360.000000, 77.628, 170.5304
2400.000000, 77.947, 170.8936
2430.000000, 78.180, 170.9943
2470.000000, 78.477, 170.8879
2500.000000, 78.687, 170.6392
2540.000000, 78.948, 170.0967
2580.000000, 79.175, 169.3263
2620.000000, 79.365, 168.3332
2650.000000, 79.483, 167.4691
2690.000000, 79.599, 166.1950
2720.000000, 79.650, 165.1876
2760.000000, 79.671, 163.8177
2800.000000, 79.643, 162.4698
2850.000000, 79.547, 160.9077
2900.000000, 79.386, 159.5631
2950.000000, 79.170, 158.4934
3000.000000, 78.912, 157.7869
3040.000000, 78.682, 157.4741
3070.000000, 78.503, 157.3681
3110.000000, 78.263, 157.4159
3150.000000, 78.019, 157.6798
3200.000000, 77.718, 158.2834
3250.000000, 77.429, 159.1566
3300.000000, 77.157, 160.2525
3350.000000, 76.903, 161.5522
3400.000000, 76.673, 163.0497
3450.000000, 76.465, 164.6530
3500.000000, 76.281, 166.3481
3550.000000, 76.126, 168.1146
3600.000000, 75.998, 169.9007
3650.000000, 75.897, 171.7258
3700.000000, 75.825, 173.5515
3750.000000, 75.781, 175.3260
3820.000000, 75.769, 177.6543
3870.000000, 75.788, 179.1606
3950.000000, 75.857, -178.8103
4000.000000, 75.917, -177.8058
4060.000000, 75.997, -176.8983
4120.000000, 76.075, -176.3471
4180.000000, 76.134, -176.1552
4250.000000, 76.156, -176.3587
4310.000000, 76.110, -176.7744
4370.000000, 75.991, -177.2125
4440.000000, 75.769, -177.5185
4500.000000, 75.533, -177.3863
4550.000000, 75.329, -176.9178
4620.000000, 75.075, -175.7846
4680.000000, 74.915, -174.5699
4750.000000, 74.800, -173.2171
4820.000000, 74.740, -172.2172
4870.000000, 74.711, -171.7889
4940.000000, 74.667, -171.5804
5000.000000, 74.603, -171.6606
5080.000000, 74.460, -171.9752
5150.000000, 74.274, -172.3831
5220.000000, 74.034, -172.7911
5300.000000, 73.701, -173.0250
5380.000000, 73.326, -172.9863
5450.000000, 72.985, -172.6819
5520.000000, 72.636, -172.0823
5600.000000, 72.238, -171.0373
5700.000000, 71.762, -169.2988
5800.000000, 71.333, -167.0303
5900.000000, 70.980, -164.2920
6000.000000, 70.715, -161.2856
6080.000000, 70.578, -158.7142
6150.000000, 70.514, -156.4271
6220.000000, 70.502, -154.1561
6300.000000, 70.551, -151.6240
6400.000000, 70.710, -148.6266
6500.000000, 70.972, -145.8586
6600.000000, 71.342, -143.4604
6700.000000, 71.830, -141.5318
6800.000000, 72.439, -140.1478
6900.000000, 73.149, -139.5451
7000.000000, 73.942, -140.0388
7100.000000, 74.786, -141.7382
7200.000000, 75.641, -144.8228
7300.000000, 76.435, -149.4163
7400.000000, 77.071, -155.4674
7500.000000, 77.457, -162.5198
7620.000000, 77.536, -171.2032
7750.000000, 77.214, -179.4647
7880.000000, 76.633, 174.4298
8000.000000, 76.039, 170.8114
8120.000000, 75.500, 168.8187
8250.000000, 75.040, 167.9959
8380.000000, 74.736, 167.9963
8500.000000, 74.594, 168.3586
8620.000000, 74.579, 168.7320
8750.000000, 74.679, 168.8601
8850.000000, 74.814, 168.6239
9000.000000, 75.064, 167.5155
9120.000000, 75.250, 165.8556
9250.000000, 75.384, 163.3942
9380.000000, 75.399, 160.5213
9500.000000, 75.279, 157.7232
9620.000000, 75.022, 155.1151
9750.000000, 74.613, 152.9008
9880.000000, 74.105, 151.5631
10000.000000, 73.586, 151.1967
10150.000000, 72.929, 151.8962
10300.000000, 72.312, 153.7238
10440.000000, 71.798, 156.2921
10600.000000, 71.302, 160.1768
10750.000000, 70.939, 164.4341
10900.000000, 70.684, 169.2372
11060.000000, 70.560, 175.0152
11200.000000, 70.632, -179.6689
11380.000000, 70.974, -173.5107
11500.000000, 71.288, -170.1426
11720.000000, 71.928, -165.3219
11800.000000, 72.175, -163.9083
12060.000000, 73.029, -160.2518
12200.000000, 73.530, -158.9851
12410.000000, 74.306, -158.5597
12500.000000, 74.617, -159.0562
12650.000000, 75.048, -160.7649
12800.000000, 75.311, -163.2749
13150.000000, 75.144, -168.9907
13200.000000, 75.050, -169.5123
13400.000000, 74.601, -170.4645
13600.000000, 74.149, -169.6592
13800.000000, 73.814, -167.5286
14000.000000, 73.664, -164.5541
14300.000000, 73.892, -159.8026
14500.000000, 74.403, -157.4875
14750.000000, 75.411, -157.3149
15000.000000, 76.611, -162.1517
15250.000000, 77.435, -173.0773
15500.000000, 77.240, 172.3651
15750.000000, 75.874, 159.4107
16000.000000, 73.785, 151.9490
16250.000000, 71.589, 150.2755
16500.000000, 69.675, 152.6245
16750.000000, 68.137, 157.2102
17000.000000, 66.940, 162.6900
17250.000000, 65.992, 168.2055
17500.000000, 65.212, 173.6695
17750.000000, 64.581, 179.1076
18000.000000, 64.122, -175.9283
18250.000000, 63.850, -172.1897
18500.000000, 63.707, -170.9825
18750.000000, 63.537, -173.5222
19000.000000, 63.054, 179.7690
19250.000000, 61.991, 169.7880
19500.000000, 60.249, 157.8034
19750.000000, 57.977, 144.9780
