* Measurement data measured by REW V5.31.3
* Source: Input device not selected, no input selected, L, volume: no control
* Format: 256k Log Swept Sine, 1 sweep at -11.0 dBFS with no timing reference
* Dated: Jul 19, 2025 12:11:49 AM
* REW Settings:
*  C-weighting compensation: Off
*  Target level: 75.0 dB
* Note: ; 
* Measurement: Pure (Final E) L
* Smoothing: 1/24 octave
* Frequency Step: 1/48 octave
* Start Frequency: 20.300 Hz
*
* Freq(Hz), SPL(dB), Phase(degrees)
20.299999, 81.886, -175.9181
20.600000, 81.860, -176.1061
20.900000, 81.835, -176.3477
21.200001, 81.817, -176.6562
21.400000, 81.808, -176.9019
21.799999, 81.796, -177.4442
22.000000, 81.790, -177.7062
22.400000, 81.779, -178.1366
22.700001, 81.776, -178.3656
23.000000, 81.777, -178.5553
23.299999, 81.782, -178.7705
23.600000, 81.780, -179.0589
24.000000, 81.751, -179.5382
24.299999, 81.705, -179.8791
24.700001, 81.629, 179.8559
25.000000, 81.584, 179.8442
25.400000, 81.567, 179.9616
25.799999, 81.600, 179.9528
26.200001, 81.638, 179.6041
26.500000, 81.637, 179.1516
26.900000, 81.577, 178.5345
27.200001, 81.504, 178.2413
27.600000, 81.416, 178.1783
28.000000, 81.395, 178.3041
28.500000, 81.457, 178.1560
29.000000, 81.504, 177.4045
29.500000, 81.436, 176.5700
30.000000, 81.294, 176.3887
30.400000, 81.221, 176.7489
30.700001, 81.224, 177.0450
31.100000, 81.287, 177.0888
31.500000, 81.351, 176.5588
32.000000, 81.335, 175.4738
32.500000, 81.207, 174.7410
33.000000, 81.078, 174.8335
33.500000, 81.059, 175.3671
34.000000, 81.142, 175.5968
34.500000, 81.224, 175.2523
35.000000, 81.230, 174.6288
35.500000, 81.161, 174.0968
36.000000, 81.054, 173.7627
36.500000, 80.944, 173.5640
37.000000, 80.845, 173.5106
37.500000, 80.780, 173.6897
38.200001, 80.791, 174.1625
38.700001, 80.856, 174.2491
39.500000, 80.918, 173.4348
40.000000, 80.876, 172.6100
40.599998, 80.762, 171.8615
41.200001, 80.640, 171.6452
41.799999, 80.539, 171.8285
42.500000, 80.442, 172.2443
43.099998, 80.389, 172.6620
43.700001, 80.402, 173.0104
44.400002, 80.488, 173.0662
45.000000, 80.553, 172.7647
45.500000, 80.565, 172.3622
46.200001, 80.522, 171.6833
46.799999, 80.457, 171.0603
47.500000, 80.370, 170.4812
48.200001, 80.284, 170.2362
48.700001, 80.226, 170.1826
49.400002, 80.134, 170.0510
50.000000, 80.038, 169.8976
50.799999, 79.913, 169.9731
51.500000, 79.842, 170.4262
52.200001, 79.800, 170.9596
53.000000, 79.751, 171.3425
53.799999, 79.708, 171.5491
54.500000, 79.716, 171.5076
55.200001, 79.727, 171.0292
56.000000, 79.662, 170.3115
57.000000, 79.554, 170.1860
58.000000, 79.547, 170.1497
59.000000, 79.504, 169.6939
60.000000, 79.483, 169.5591
60.799999, 79.528, 169.4949
61.500000, 79.567, 169.4269
62.200001, 79.592, 169.4672
63.000000, 79.610, 169.6696
64.000000, 79.587, 170.1681
65.000000, 79.492, 170.8596
66.000000, 79.363, 171.2192
67.000000, 79.240, 170.9361
68.000000, 79.165, 170.2518
69.000000, 79.177, 169.7107
70.000000, 79.227, 169.8630
71.000000, 79.201, 170.5447
72.000000, 79.085, 170.9125
73.000000, 78.994, 170.5098
74.000000, 79.012, 169.9999
75.000000, 79.093, 170.2989
76.199997, 79.065, 171.5667
77.500000, 78.780, 171.8284
78.800003, 78.710, 170.0231
80.000000, 78.912, 169.8622
81.199997, 78.862, 171.1908
82.500000, 78.674, 170.9984
83.800003, 78.725, 170.7172
85.000000, 78.711, 171.5930
86.199997, 78.602, 171.6611
87.500000, 78.580, 171.3464
88.500000, 78.563, 171.4162
90.000000, 78.512, 171.4698
91.199997, 78.479, 171.6594
92.500000, 78.406, 171.7999
93.800003, 78.365, 171.8340
95.000000, 78.338, 172.0643
96.199997, 78.294, 172.1214
97.500000, 78.250, 172.1705
98.800003, 78.207, 172.3643
100.000000, 78.173, 172.4055
101.500000, 78.144, 172.4785
103.000000, 78.100, 172.8243
104.400002, 78.036, 173.1924
106.000000, 77.936, 172.9546
107.500000, 77.892, 172.8095
109.000000, 77.925, 173.2018
110.599998, 77.927, 173.6671
112.000000, 77.911, 173.9591
113.800003, 77.870, 174.0763
115.000000, 77.829, 174.1240
117.199997, 77.770, 174.3003
118.000000, 77.748, 174.4347
120.599998, 77.680, 174.8290
122.000000, 77.652, 174.8497
124.099998, 77.615, 175.0148
125.000000, 77.598, 175.0735
126.500000, 77.569, 175.2275
128.000000, 77.536, 175.4205
131.500000, 77.454, 175.9828
132.000000, 77.439, 176.0653
134.000000, 77.395, 176.3260
136.000000, 77.371, 176.5012
138.000000, 77.341, 176.7121
140.000000, 77.307, 177.0430
143.000000, 77.236, 177.3802
145.000000, 77.204, 177.5497
147.500000, 77.151, 177.8702
150.000000, 77.104, 178.1420
152.500000, 77.064, 178.4809
155.000000, 77.018, 178.8300
157.500000, 76.969, 179.1089
160.000000, 76.911, 179.5640
162.500000, 76.866, -179.9730
165.000000, 76.825, -179.4809
167.500000, 76.787, -179.0210
170.000000, 76.749, -178.5799
172.500000, 76.717, -178.0261
175.000000, 76.695, -177.4462
177.500000, 76.695, -176.8524
180.000000, 76.719, -176.2673
182.500000, 76.743, -175.7870
185.000000, 76.773, -175.3882
187.500000, 76.811, -175.1609
190.000000, 76.839, -175.0551
192.500000, 76.857, -174.9306
195.000000, 76.872, -174.8511
197.500000, 76.873, -174.8358
200.000000, 76.859, -174.8291
203.000000, 76.836, -174.7518
206.000000, 76.814, -174.6155
209.000000, 76.790, -174.4702
212.000000, 76.763, -174.3347
214.000000, 76.741, -174.2376
218.000000, 76.699, -173.9809
220.000000, 76.678, -173.8465
224.000000, 76.639, -173.5382
227.000000, 76.609, -173.2462
230.000000, 76.578, -172.9982
233.000000, 76.545, -172.7659
236.000000, 76.514, -172.5014
240.000000, 76.473, -172.2056
243.000000, 76.446, -171.9703
247.000000, 76.417, -171.6267
250.000000, 76.396, -171.3727
254.000000, 76.366, -171.0300
258.000000, 76.327, -170.6916
262.000000, 76.287, -170.3514
265.000000, 76.261, -170.1106
269.000000, 76.228, -169.7218
272.000000, 76.206, -169.3956
276.000000, 76.181, -169.0309
280.000000, 76.153, -168.7078
285.000000, 76.119, -168.2303
290.000000, 76.084, -167.7527
295.000000, 76.045, -167.3306
300.000000, 76.012, -166.8971
304.000000, 75.983, -166.5505
307.000000, 75.963, -166.2780
311.000000, 75.938, -165.9128
315.000000, 75.911, -165.5724
320.000000, 75.876, -165.1229
325.000000, 75.844, -164.6813
330.000000, 75.814, -164.2401
335.000000, 75.785, -163.8086
340.000000, 75.757, -163.3873
345.000000, 75.731, -162.9447
350.000000, 75.700, -162.4889
355.000000, 75.666, -162.0527
360.000000, 75.638, -161.6102
365.000000, 75.611, -161.1625
370.000000, 75.583, -160.7101
375.000000, 75.552, -160.2623
382.000000, 75.511, -159.6243
387.000000, 75.484, -159.1755
395.000000, 75.441, -158.4469
400.000000, 75.415, -157.9907
406.000000, 75.387, -157.4805
412.000000, 75.358, -156.9640
418.000000, 75.328, -156.4181
425.000000, 75.294, -155.7843
431.000000, 75.270, -155.2645
437.000000, 75.248, -154.7666
444.000000, 75.218, -154.2039
450.000000, 75.192, -153.7351
455.000000, 75.169, -153.3227
462.000000, 75.135, -152.7574
468.000000, 75.104, -152.2907
475.000000, 75.067, -151.7286
482.000000, 75.031, -151.1592
487.000000, 75.004, -150.7406
494.000000, 74.964, -150.1254
500.000000, 74.930, -149.5900
508.000000, 74.887, -148.8947
515.000000, 74.851, -148.2675
522.000000, 74.814, -147.6609
530.000000, 74.773, -146.9677
538.000000, 74.731, -146.2488
545.000000, 74.699, -145.6014
552.000000, 74.669, -144.9357
560.000000, 74.634, -144.2011
570.000000, 74.586, -143.2926
580.000000, 74.537, -142.3898
590.000000, 74.497, -141.4813
600.000000, 74.455, -140.5641
608.000000, 74.422, -139.7876
615.000000, 74.394, -139.0990
622.000000, 74.366, -138.4369
630.000000, 74.338, -137.7066
640.000000, 74.305, -136.7657
650.000000, 74.266, -135.7795
660.000000, 74.230, -134.7821
670.000000, 74.193, -133.7803
680.000000, 74.158, -132.8360
690.000000, 74.126, -131.8676
700.000000, 74.094, -130.8702
710.000000, 74.068, -129.8515
720.000000, 74.043, -128.8126
730.000000, 74.018, -127.8059
740.000000, 73.995, -126.7856
750.000000, 73.974, -125.7468
762.000000, 73.954, -124.4781
775.000000, 73.936, -123.1116
788.000000, 73.927, -121.7327
800.000000, 73.919, -120.4405
812.000000, 73.913, -119.1240
825.000000, 73.910, -117.7162
838.000000, 73.910, -116.3632
850.000000, 73.917, -115.0910
862.000000, 73.931, -113.8142
875.000000, 73.952, -112.4198
885.000000, 73.972, -111.3399
900.000000, 74.011, -109.7677
912.000000, 74.044, -108.4871
925.000000, 74.081, -107.1021
938.000000, 74.126, -105.7666
950.000000, 74.173, -104.5446
962.000000, 74.227, -103.3476
975.000000, 74.293, -102.0845
988.000000, 74.362, -100.8484
1000.000000, 74.429, -99.7274
1015.000000, 74.516, -98.3888
1030.000000, 74.606, -97.1087
1044.000000, 74.696, -95.9454
1060.000000, 74.802, -94.6776
1075.000000, 74.904, -93.5553
1090.000000, 75.008, -92.4865
1106.000000, 75.120, -91.3941
1120.000000, 75.213, -90.4747
1138.000000, 75.329, -89.3683
1150.000000, 75.408, -88.6787
1172.000000, 75.546, -87.4613
1180.000000, 75.594, -87.0383
1206.000000, 75.749, -85.7133
1220.000000, 75.830, -85.0538
1241.000000, 75.944, -84.1255
1250.000000, 75.990, -83.7370
1265.000000, 76.063, -83.0897
1280.000000, 76.133, -82.4499
1315.000000, 76.283, -81.0084
1320.000000, 76.303, -80.8060
1340.000000, 76.382, -80.0043
1360.000000, 76.454, -79.1943
1380.000000, 76.523, -78.4079
1400.000000, 76.587, -77.6359
1430.000000, 76.679, -76.4383
1450.000000, 76.737, -75.6379
1475.000000, 76.802, -74.6285
1500.000000, 76.868, -73.6220
1525.000000, 76.936, -72.5903
1550.000000, 77.002, -71.5386
1575.000000, 77.063, -70.5036
1600.000000, 77.128, -69.4761
1625.000000, 77.195, -68.4556
1650.000000, 77.264, -67.4075
1675.000000, 77.334, -66.3392
1700.000000, 77.404, -65.2830
1725.000000, 77.475, -64.2303
1750.000000, 77.547, -63.1901
1775.000000, 77.623, -62.1703
1800.000000, 77.702, -61.1745
1825.000000, 77.786, -60.1911
1850.000000, 77.873, -59.1929
1875.000000, 77.959, -58.2040
1900.000000, 78.045, -57.2418
1925.000000, 78.136, -56.2919
1950.000000, 78.231, -55.3746
1975.000000, 78.328, -54.4941
2000.000000, 78.424, -53.6240
2030.000000, 78.543, -52.5964
2060.000000, 78.669, -51.6156
2090.000000, 78.798, -50.6617
2120.000000, 78.928, -49.7474
2140.000000, 79.016, -49.1762
2180.000000, 79.195, -48.0984
2200.000000, 79.287, -47.5900
2240.000000, 79.473, -46.6493
2270.000000, 79.614, -46.0074
2300.000000, 79.753, -45.4182
2330.000000, 79.893, -44.8914
2360.000000, 80.032, -44.4316
2400.000000, 80.215, -43.9075
2430.000000, 80.350, -43.5847
2470.000000, 80.525, -43.2738
2500.000000, 80.652, -43.1203
2540.000000, 80.813, -42.9938
2580.000000, 80.963, -42.9619
2620.000000, 81.101, -43.0328
2650.000000, 81.196, -43.1413
2690.000000, 81.308, -43.3630
2720.000000, 81.380, -43.5779
2760.000000, 81.463, -43.8951
2800.000000, 81.529, -44.2531
2850.000000, 81.590, -44.7486
2900.000000, 81.625, -45.2740
2950.000000, 81.630, -45.8091
3000.000000, 81.609, -46.3350
3040.000000, 81.575, -46.7223
3070.000000, 81.540, -46.9869
3110.000000, 81.480, -47.2947
3150.000000, 81.407, -47.5386
3200.000000, 81.303, -47.7333
3250.000000, 81.190, -47.8168
3300.000000, 81.074, -47.8261
3350.000000, 80.952, -47.7846
3400.000000, 80.821, -47.6921
3450.000000, 80.682, -47.5206
3500.000000, 80.530, -47.2542
3550.000000, 80.372, -46.8729
3600.000000, 80.216, -46.3628
3650.000000, 80.065, -45.7526
3700.000000, 79.920, -45.0713
3750.000000, 79.780, -44.3158
3820.000000, 79.599, -43.1639
3870.000000, 79.478, -42.2940
3950.000000, 79.296, -40.8418
4000.000000, 79.193, -39.9033
4060.000000, 79.079, -38.7722
4120.000000, 78.976, -37.6357
4180.000000, 78.883, -36.4995
4250.000000, 78.782, -35.1983
4310.000000, 78.704, -34.1203
4370.000000, 78.632, -33.0866
4440.000000, 78.553, -31.9346
4500.000000, 78.489, -31.0013
4550.000000, 78.437, -30.2605
4620.000000, 78.364, -29.2783
4680.000000, 78.297, -28.5085
4750.000000, 78.210, -27.6504
4820.000000, 78.117, -26.8467
4870.000000, 78.043, -26.2942
4940.000000, 77.926, -25.5369
5000.000000, 77.813, -24.9091
5080.000000, 77.646, -24.0403
5150.000000, 77.485, -23.2015
5220.000000, 77.311, -22.2844
5300.000000, 77.100, -21.1291
5380.000000, 76.883, -19.7931
5450.000000, 76.695, -18.4794
5520.000000, 76.515, -17.0642
5600.000000, 76.325, -15.3313
5700.000000, 76.114, -13.1252
5800.000000, 75.929, -10.9624
5900.000000, 75.747, -8.8680
6000.000000, 75.549, -6.8374
6080.000000, 75.380, -5.2218
6150.000000, 75.222, -3.7134
6220.000000, 75.057, -2.0621
6300.000000, 74.869, 0.0059
6400.000000, 74.649, 2.8356
6500.000000, 74.455, 5.8661
6600.000000, 74.296, 9.0748
6700.000000, 74.179, 12.4560
6800.000000, 74.103, 15.9678
6900.000000, 74.074, 19.5521
7000.000000, 74.095, 23.1805
7100.000000, 74.175, 26.7996
7200.000000, 74.319, 30.2821
7300.000000, 74.502, 33.4319
7400.000000, 74.657, 36.4583
7500.000000, 74.856, 40.1731
7620.000000, 75.312, 44.5255
7750.000000, 75.939, 48.0821
7880.000000, 76.640, 50.7641
8000.000000, 77.335, 52.4320
8120.000000, 78.037, 53.3994
8250.000000, 78.861, 54.6596
8380.000000, 80.232, 55.8721
8500.000000, 81.851, 51.8253
8620.000000, 82.958, 41.7555
8750.000000, 83.077, 29.2486
8850.000000, 82.690, 21.2571
9000.000000, 81.748, 12.3389
9120.000000, 80.858, 7.6497
9250.000000, 79.892, 4.6226
9380.000000, 79.005, 3.1279
9500.000000, 78.279, 2.5419
9620.000000, 77.617, 2.3489
9750.000000, 76.914, 2.5229
9880.000000, 76.206, 3.4736
10000.000000, 75.588, 5.3670
10150.000000, 74.986, 9.0910
10300.000000, 74.701, 13.5934
10440.000000, 74.743, 17.3322
10600.000000, 75.045, 19.9959
10750.000000, 75.435, 20.5681
10900.000000, 75.798, 19.2946
11060.000000, 76.029, 16.2194
11200.000000, 76.014, 12.6464
11380.000000, 75.651, 8.0204
11500.000000, 75.224, 5.5904
11720.000000, 74.259, 3.4100
11800.000000, 73.907, 3.3427
12060.000000, 72.938, 4.9256
12200.000000, 72.538, 6.3414
12410.000000, 72.069, 9.1615
12500.000000, 71.952, 10.6842
12650.000000, 71.923, 13.0807
12800.000000, 72.058, 14.5968
13150.000000, 72.560, 14.1281
13200.000000, 72.628, 13.6508
13400.000000, 72.841, 10.8818
13600.000000, 72.916, 6.9023
13800.000000, 72.810, 2.1779
14000.000000, 72.504, -2.7580
14300.000000, 71.718, -9.5380
14500.000000, 71.052, -13.3722
14750.000000, 70.140, -17.4025
15000.000000, 69.191, -20.8953
15250.000000, 68.086, -24.3308
15500.000000, 66.642, -25.4490
15750.000000, 65.351, -22.0101
16000.000000, 64.640, -18.0602
16250.000000, 64.159, -15.4688
16500.000000, 63.706, -13.2154
16750.000000, 63.289, -10.8678
17000.000000, 62.899, -8.2576
17250.000000, 62.492, -5.2263
17500.000000, 62.048, -0.8010
17750.000000, 62.046, 9.0213
18000.000000, 64.291, 23.9557
18250.000000, 67.531, 20.2417
18500.000000, 68.977, 0.2418
18750.000000, 68.696, -22.0864
19000.000000, 67.404, -43.7033
19250.000000, 65.184, -64.8914
19500.000000, 61.876, -83.9305
19750.000000, 57.704, -98.4940
