* Measurement data measured by REW V5.31.3
* Source: Input device not selected, no input selected, L, volume: no control
* Format: 256k Log Swept Sine, 1 sweep at -11.0 dBFS with no timing reference
* Dated: Jul 19, 2025 12:05:39 AM
* REW Settings:
*  C-weighting compensation: Off
*  Target level: 75.0 dB
* Note: ; 
* Measurement: Pure (Azla Foamax) L
* Smoothing: 1/24 octave
* Frequency Step: 1/48 octave
* Start Frequency: 20.300 Hz
*
* Freq(Hz), SPL(dB), Phase(degrees)
20.299999, 81.620, -176.7527
20.600000, 81.596, -177.0219
20.900000, 81.561, -177.3212
21.200001, 81.527, -177.6197
21.400000, 81.507, -177.8200
21.799999, 81.479, -178.2334
22.000000, 81.470, -178.4485
22.400000, 81.455, -178.8861
22.700001, 81.441, -179.2040
23.000000, 81.421, -179.4959
23.299999, 81.396, -179.7538
23.600000, 81.369, -179.9824
24.000000, 81.337, 179.7299
24.299999, 81.320, 179.5022
24.700001, 81.304, 179.1635
25.000000, 81.295, 178.8904
25.400000, 81.280, 178.5339
25.799999, 81.258, 178.2227
26.200001, 81.229, 177.9660
26.500000, 81.205, 177.7936
26.900000, 81.171, 177.5555
27.200001, 81.147, 177.3537
27.600000, 81.118, 177.0521
28.000000, 81.092, 176.7382
28.500000, 81.063, 176.3835
29.000000, 81.036, 176.1043
29.500000, 81.003, 175.8802
30.000000, 80.963, 175.6568
30.400000, 80.928, 175.4474
30.700001, 80.904, 175.2677
31.100000, 80.876, 175.0062
31.500000, 80.852, 174.7426
32.000000, 80.826, 174.4525
32.500000, 80.796, 174.2340
33.000000, 80.762, 174.0687
33.500000, 80.725, 173.9027
34.000000, 80.689, 173.6917
34.500000, 80.656, 173.4389
35.000000, 80.625, 173.1880
35.500000, 80.592, 172.9825
36.000000, 80.557, 172.8279
36.500000, 80.522, 172.6902
37.000000, 80.489, 172.5292
37.500000, 80.459, 172.3353
38.200001, 80.416, 172.0691
38.700001, 80.380, 171.9294
39.500000, 80.318, 171.7701
40.000000, 80.281, 171.6483
40.599998, 80.244, 171.4572
41.200001, 80.212, 171.2704
41.799999, 80.182, 171.1418
42.500000, 80.141, 171.0416
43.099998, 80.099, 170.9329
43.700001, 80.055, 170.7773
44.400002, 80.010, 170.5818
45.000000, 79.975, 170.4539
45.500000, 79.945, 170.3828
46.200001, 79.901, 170.2949
46.799999, 79.864, 170.1895
47.500000, 79.824, 170.0418
48.200001, 79.783, 169.9303
48.700001, 79.752, 169.8868
49.400002, 79.708, 169.8361
50.000000, 79.673, 169.7636
50.799999, 79.633, 169.6519
51.500000, 79.597, 169.6037
52.200001, 79.557, 169.5760
53.000000, 79.509, 169.4779
53.799999, 79.462, 169.3716
54.500000, 79.425, 169.3625
55.200001, 79.385, 169.3665
56.000000, 79.319, 169.3024
57.000000, 79.239, 169.2480
58.000000, 79.211, 169.2292
59.000000, 79.178, 169.1649
60.000000, 79.127, 169.1289
60.799999, 79.093, 169.0923
61.500000, 79.063, 169.0729
62.200001, 79.027, 169.0742
63.000000, 78.982, 169.0586
64.000000, 78.929, 169.0292
65.000000, 78.880, 169.0645
66.000000, 78.833, 169.1103
67.000000, 78.789, 169.1200
68.000000, 78.746, 169.1447
69.000000, 78.701, 169.1693
70.000000, 78.657, 169.1625
71.000000, 78.618, 169.2059
72.000000, 78.582, 169.2781
73.000000, 78.540, 169.3083
74.000000, 78.497, 169.3347
75.000000, 78.453, 169.3700
76.199997, 78.403, 169.4097
77.500000, 78.355, 169.4763
78.800003, 78.300, 169.5706
80.000000, 78.253, 169.6373
81.199997, 78.214, 169.7308
82.500000, 78.167, 169.8838
83.800003, 78.111, 170.0151
85.000000, 78.061, 170.1141
86.199997, 78.022, 170.2270
87.500000, 77.984, 170.3352
88.500000, 77.960, 170.4146
90.000000, 77.922, 170.5704
91.199997, 77.876, 170.6786
92.500000, 77.828, 170.7528
93.800003, 77.789, 170.8808
95.000000, 77.751, 171.0057
96.199997, 77.713, 171.1324
97.500000, 77.672, 171.2616
98.800003, 77.633, 171.3623
100.000000, 77.602, 171.4880
101.500000, 77.563, 171.6581
103.000000, 77.528, 171.8570
104.400002, 77.489, 172.0091
106.000000, 77.460, 172.0834
107.500000, 77.428, 172.2547
109.000000, 77.370, 172.5240
110.599998, 77.319, 172.7023
112.000000, 77.290, 172.8569
113.800003, 77.255, 173.1265
115.000000, 77.226, 173.2588
117.199997, 77.172, 173.4101
118.000000, 77.153, 173.5026
120.599998, 77.098, 173.8749
122.000000, 77.066, 174.0121
124.099998, 77.016, 174.2436
125.000000, 76.998, 174.3689
126.500000, 76.972, 174.5607
128.000000, 76.946, 174.7078
131.500000, 76.877, 175.1482
132.000000, 76.866, 175.2203
134.000000, 76.826, 175.4763
136.000000, 76.786, 175.6905
138.000000, 76.750, 175.9582
140.000000, 76.709, 176.2419
143.000000, 76.658, 176.6042
145.000000, 76.634, 176.7874
147.500000, 76.600, 177.0361
150.000000, 76.554, 177.3769
152.500000, 76.514, 177.6052
155.000000, 76.483, 177.9111
157.500000, 76.449, 178.2393
160.000000, 76.417, 178.5570
162.500000, 76.388, 178.8136
165.000000, 76.354, 179.0789
167.500000, 76.322, 179.4155
170.000000, 76.290, 179.7580
172.500000, 76.258, -179.9632
175.000000, 76.225, -179.7076
177.500000, 76.193, -179.4324
180.000000, 76.173, -179.1525
182.500000, 76.151, -178.8384
185.000000, 76.122, -178.5600
187.500000, 76.089, -178.2880
190.000000, 76.061, -178.0003
192.500000, 76.033, -177.7481
195.000000, 76.006, -177.5032
197.500000, 75.984, -177.2203
200.000000, 75.965, -176.9325
203.000000, 75.937, -176.6252
206.000000, 75.907, -176.2753
209.000000, 75.878, -175.9436
212.000000, 75.849, -175.6510
214.000000, 75.831, -175.4409
218.000000, 75.794, -175.0272
220.000000, 75.777, -174.8289
224.000000, 75.744, -174.3821
227.000000, 75.716, -174.0554
230.000000, 75.695, -173.7331
233.000000, 75.676, -173.4364
236.000000, 75.651, -173.1333
240.000000, 75.622, -172.6875
243.000000, 75.599, -172.4118
247.000000, 75.566, -172.0240
250.000000, 75.543, -171.6967
254.000000, 75.515, -171.3002
258.000000, 75.484, -170.9363
262.000000, 75.456, -170.5444
265.000000, 75.437, -170.2441
269.000000, 75.412, -169.8351
272.000000, 75.389, -169.5255
276.000000, 75.358, -169.1377
280.000000, 75.328, -168.7311
285.000000, 75.294, -168.2391
290.000000, 75.259, -167.8104
295.000000, 75.231, -167.3589
300.000000, 75.203, -166.8666
304.000000, 75.178, -166.4739
307.000000, 75.159, -166.2005
311.000000, 75.137, -165.8592
315.000000, 75.119, -165.4967
320.000000, 75.093, -165.0002
325.000000, 75.058, -164.5220
330.000000, 75.025, -164.0537
335.000000, 74.998, -163.5772
340.000000, 74.974, -163.1166
345.000000, 74.948, -162.6566
350.000000, 74.921, -162.2103
355.000000, 74.897, -161.7572
360.000000, 74.870, -161.3131
365.000000, 74.842, -160.8661
370.000000, 74.817, -160.3922
375.000000, 74.789, -159.9272
382.000000, 74.752, -159.2873
387.000000, 74.730, -158.8112
395.000000, 74.687, -158.0610
400.000000, 74.665, -157.6241
406.000000, 74.641, -157.1045
412.000000, 74.614, -156.5536
418.000000, 74.588, -156.0135
425.000000, 74.560, -155.4196
431.000000, 74.541, -154.9150
437.000000, 74.521, -154.4036
444.000000, 74.489, -153.8305
450.000000, 74.463, -153.3779
455.000000, 74.438, -152.9785
462.000000, 74.403, -152.4035
468.000000, 74.373, -151.9268
475.000000, 74.337, -151.3324
482.000000, 74.301, -150.7240
487.000000, 74.275, -150.2833
494.000000, 74.238, -149.6711
500.000000, 74.205, -149.1559
508.000000, 74.167, -148.4341
515.000000, 74.139, -147.7907
522.000000, 74.108, -147.1729
530.000000, 74.074, -146.4957
538.000000, 74.036, -145.7783
545.000000, 73.999, -145.1140
552.000000, 73.962, -144.4330
560.000000, 73.926, -143.6931
570.000000, 73.883, -142.7870
580.000000, 73.842, -141.8916
590.000000, 73.807, -140.9600
600.000000, 73.768, -140.0080
608.000000, 73.731, -139.2294
615.000000, 73.701, -138.5708
622.000000, 73.674, -137.9201
630.000000, 73.648, -137.1589
640.000000, 73.613, -136.2021
650.000000, 73.573, -135.2416
660.000000, 73.534, -134.2460
670.000000, 73.500, -133.1977
680.000000, 73.467, -132.1994
690.000000, 73.438, -131.2048
700.000000, 73.410, -130.2137
710.000000, 73.385, -129.2211
720.000000, 73.361, -128.2351
730.000000, 73.338, -127.2117
740.000000, 73.319, -126.1423
750.000000, 73.300, -125.1007
762.000000, 73.284, -123.8678
775.000000, 73.271, -122.5346
788.000000, 73.259, -121.1626
800.000000, 73.252, -119.8758
812.000000, 73.247, -118.5955
825.000000, 73.244, -117.1723
838.000000, 73.249, -115.7610
850.000000, 73.261, -114.4992
862.000000, 73.275, -113.2368
875.000000, 73.295, -111.8794
885.000000, 73.317, -110.8437
900.000000, 73.356, -109.2639
912.000000, 73.393, -108.0045
925.000000, 73.433, -106.6624
938.000000, 73.478, -105.3550
950.000000, 73.529, -104.1653
962.000000, 73.588, -102.9730
975.000000, 73.649, -101.7352
988.000000, 73.711, -100.5498
1000.000000, 73.773, -99.4522
1015.000000, 73.854, -98.0760
1030.000000, 73.943, -96.7857
1044.000000, 74.030, -95.6533
1060.000000, 74.128, -94.4080
1075.000000, 74.218, -93.2936
1090.000000, 74.312, -92.2087
1106.000000, 74.418, -91.0936
1120.000000, 74.511, -90.1890
1138.000000, 74.623, -89.0981
1150.000000, 74.696, -88.3788
1172.000000, 74.832, -87.1144
1180.000000, 74.881, -86.6715
1206.000000, 75.025, -85.3521
1220.000000, 75.098, -84.6739
1241.000000, 75.205, -83.6600
1250.000000, 75.250, -83.2363
1265.000000, 75.324, -82.5537
1280.000000, 75.392, -81.8909
1315.000000, 75.541, -80.3710
1320.000000, 75.560, -80.1651
1340.000000, 75.634, -79.3264
1360.000000, 75.706, -78.4874
1380.000000, 75.776, -77.6469
1400.000000, 75.844, -76.7715
1430.000000, 75.938, -75.4892
1450.000000, 75.996, -74.6538
1475.000000, 76.066, -73.5733
1500.000000, 76.133, -72.4881
1525.000000, 76.202, -71.4321
1550.000000, 76.270, -70.3613
1575.000000, 76.337, -69.2566
1600.000000, 76.404, -68.1527
1625.000000, 76.476, -67.0488
1650.000000, 76.548, -65.9408
1675.000000, 76.622, -64.8434
1700.000000, 76.702, -63.7582
1725.000000, 76.782, -62.6866
1750.000000, 76.861, -61.6175
1775.000000, 76.944, -60.5666
1800.000000, 77.031, -59.5270
1825.000000, 77.120, -58.4797
1850.000000, 77.214, -57.4497
1875.000000, 77.310, -56.4584
1900.000000, 77.407, -55.4837
1925.000000, 77.507, -54.5190
1950.000000, 77.609, -53.5795
1975.000000, 77.710, -52.6628
2000.000000, 77.815, -51.7823
2030.000000, 77.946, -50.7579
2060.000000, 78.078, -49.7780
2090.000000, 78.215, -48.8385
2120.000000, 78.354, -47.9394
2140.000000, 78.450, -47.3682
2180.000000, 78.642, -46.2924
2200.000000, 78.739, -45.7936
2240.000000, 78.933, -44.8898
2270.000000, 79.079, -44.2725
2300.000000, 79.225, -43.7105
2330.000000, 79.371, -43.2216
2360.000000, 79.517, -42.7847
2400.000000, 79.707, -42.2866
2430.000000, 79.846, -41.9881
2470.000000, 80.026, -41.6964
2500.000000, 80.153, -41.5603
2540.000000, 80.315, -41.4615
2580.000000, 80.466, -41.4567
2620.000000, 80.604, -41.5397
2650.000000, 80.697, -41.6538
2690.000000, 80.807, -41.8775
2720.000000, 80.878, -42.0864
2760.000000, 80.959, -42.3941
2800.000000, 81.023, -42.7199
2850.000000, 81.082, -43.1458
2900.000000, 81.115, -43.5911
2950.000000, 81.124, -44.0311
3000.000000, 81.112, -44.4453
3040.000000, 81.086, -44.7524
3070.000000, 81.056, -44.9672
3110.000000, 81.004, -45.2084
3150.000000, 80.940, -45.3856
3200.000000, 80.850, -45.5199
3250.000000, 80.749, -45.5333
3300.000000, 80.644, -45.4504
3350.000000, 80.537, -45.2697
3400.000000, 80.428, -45.0218
3450.000000, 80.317, -44.7223
3500.000000, 80.203, -44.3518
3550.000000, 80.087, -43.8992
3600.000000, 79.972, -43.3823
3650.000000, 79.859, -42.7963
3700.000000, 79.749, -42.1661
3750.000000, 79.645, -41.4896
3820.000000, 79.508, -40.4375
3870.000000, 79.419, -39.6308
3950.000000, 79.292, -38.3162
4000.000000, 79.223, -37.4887
4060.000000, 79.151, -36.5053
4120.000000, 79.090, -35.5384
4180.000000, 79.036, -34.6190
4250.000000, 78.983, -33.6272
4310.000000, 78.944, -32.8445
4370.000000, 78.905, -32.1101
4440.000000, 78.860, -31.3520
4500.000000, 78.819, -30.7785
4550.000000, 78.781, -30.3596
4620.000000, 78.716, -29.8684
4680.000000, 78.648, -29.5063
4750.000000, 78.553, -29.1324
4820.000000, 78.437, -28.7920
4870.000000, 78.341, -28.5446
4940.000000, 78.186, -28.1731
5000.000000, 78.034, -27.7995
5080.000000, 77.808, -27.1882
5150.000000, 77.593, -26.5284
5220.000000, 77.367, -25.6868
5300.000000, 77.101, -24.4624
5380.000000, 76.836, -22.9701
5450.000000, 76.616, -21.4660
5520.000000, 76.417, -19.8101
5600.000000, 76.225, -17.7736
5700.000000, 76.035, -15.1259
5800.000000, 75.892, -12.5589
5900.000000, 75.782, -10.1846
6000.000000, 75.684, -8.0051
6080.000000, 75.601, -6.3485
6150.000000, 75.520, -4.9147
6220.000000, 75.435, -3.4430
6300.000000, 75.339, -1.6828
6400.000000, 75.228, 0.6470
6500.000000, 75.135, 3.1135
6600.000000, 75.075, 5.6792
6700.000000, 75.053, 8.2981
6800.000000, 75.072, 10.9056
6900.000000, 75.136, 13.4594
7000.000000, 75.246, 15.9042
7100.000000, 75.410, 18.1584
7200.000000, 75.629, 20.0812
7300.000000, 75.864, 21.4145
7400.000000, 76.046, 22.3812
7500.000000, 76.242, 23.7078
7620.000000, 76.613, 24.8272
7750.000000, 77.032, 24.5138
7880.000000, 77.348, 23.0256
8000.000000, 77.491, 20.9438
8120.000000, 77.422, 18.7221
8250.000000, 77.123, 18.0315
8380.000000, 77.166, 20.2641
8500.000000, 77.742, 19.7912
8620.000000, 78.074, 14.6476
8750.000000, 77.644, 9.0026
8850.000000, 77.104, 6.8612
9000.000000, 76.370, 5.8845
9120.000000, 75.900, 5.9627
9250.000000, 75.496, 6.3310
9380.000000, 75.173, 6.5867
9500.000000, 74.898, 6.4571
9620.000000, 74.579, 5.9881
9750.000000, 74.114, 5.5796
9880.000000, 73.544, 6.2325
10000.000000, 73.047, 8.2305
10150.000000, 72.662, 12.1189
10300.000000, 72.651, 15.9785
10440.000000, 72.896, 17.9920
10600.000000, 73.234, 17.8311
10750.000000, 73.403, 15.7810
10900.000000, 73.327, 12.7742
11060.000000, 72.956, 9.5795
11200.000000, 72.430, 7.6116
11380.000000, 71.602, 6.8311
11500.000000, 71.046, 7.4669
11720.000000, 70.175, 10.4743
11800.000000, 69.930, 11.9253
12060.000000, 69.419, 16.7950
12200.000000, 69.259, 19.0704
12410.000000, 69.068, 22.5455
12500.000000, 69.043, 24.2319
12650.000000, 69.136, 26.8035
12800.000000, 69.352, 28.5100
13150.000000, 69.900, 28.8401
13200.000000, 69.964, 28.5805
13400.000000, 70.160, 26.9894
13600.000000, 70.256, 24.6950
13800.000000, 70.240, 21.9852
14000.000000, 70.107, 19.1146
14300.000000, 69.721, 15.0305
14500.000000, 69.397, 12.5343
14750.000000, 68.956, 9.5811
15000.000000, 68.466, 6.5269
15250.000000, 67.781, 3.2843
15500.000000, 66.780, 2.2175
15750.000000, 66.013, 5.0023
16000.000000, 65.785, 7.6926
16250.000000, 65.758, 9.0104
16500.000000, 65.814, 9.5617
16750.000000, 65.952, 9.3731
17000.000000, 66.129, 8.1385
17250.000000, 66.240, 5.5738
17500.000000, 66.109, 2.5338
17750.000000, 65.890, 2.0387
18000.000000, 66.788, 3.4480
18250.000000, 68.331, -6.5557
18500.000000, 68.304, -26.6804
18750.000000, 66.505, -46.2400
19000.000000, 63.623, -61.2244
19250.000000, 60.161, -71.7940
19500.000000, 56.368, -79.1069
19750.000000, 52.526, -84.0940
