* Measurement data measured by REW V5.31.3
* Source: Input device not selected, no input selected, L, volume: no control
* Format: 256k Log Swept Sine, 1 sweep at -11.0 dBFS with no timing reference
* Dated: Jul 19, 2025 12:12:54 AM
* REW Settings:
*  C-weighting compensation: Off
*  Target level: 75.0 dB
* Note: ; 
* Measurement: Pure (Sancai Narrow) L
* Smoothing: 1/24 octave
* Frequency Step: 1/48 octave
* Start Frequency: 20.300 Hz
*
* Freq(Hz), SPL(dB), Phase(degrees)
20.299999, 81.467, -176.3548
20.600000, 81.446, -176.5976
20.900000, 81.415, -176.8857
21.200001, 81.381, -177.1982
21.400000, 81.360, -177.4193
21.799999, 81.327, -177.8856
22.000000, 81.316, -178.1255
22.400000, 81.303, -178.6018
22.700001, 81.297, -178.9414
23.000000, 81.290, -179.2528
23.299999, 81.276, -179.5278
23.600000, 81.257, -179.7644
24.000000, 81.225, 179.9676
24.299999, 81.199, 179.7832
24.700001, 81.168, 179.5266
25.000000, 81.150, 179.3100
25.400000, 81.130, 178.9867
25.799999, 81.111, 178.6453
26.200001, 81.090, 178.3184
26.500000, 81.070, 178.0960
26.900000, 81.041, 177.8288
27.200001, 81.017, 177.6398
27.600000, 80.986, 177.3842
28.000000, 80.958, 177.1127
28.500000, 80.927, 176.7627
29.000000, 80.899, 176.4392
29.500000, 80.872, 176.1659
30.000000, 80.844, 175.9245
30.400000, 80.818, 175.7289
30.700001, 80.798, 175.5737
31.100000, 80.769, 175.3591
31.500000, 80.742, 175.1474
32.000000, 80.713, 174.8998
32.500000, 80.688, 174.6702
33.000000, 80.661, 174.4559
33.500000, 80.630, 174.2629
34.000000, 80.604, 174.0790
34.500000, 80.594, 173.8525
35.000000, 80.593, 173.5409
35.500000, 80.583, 173.1892
36.000000, 80.548, 172.9228
36.500000, 80.490, 172.8372
37.000000, 80.426, 172.8959
37.500000, 80.365, 172.9596
38.200001, 80.290, 172.8594
38.700001, 80.242, 172.6483
39.500000, 80.184, 172.1857
40.000000, 80.155, 171.8832
40.599998, 80.123, 171.6021
41.200001, 80.102, 171.4705
41.799999, 80.092, 171.4353
42.500000, 80.068, 171.4243
43.099998, 80.014, 171.4698
43.700001, 79.941, 171.5600
44.400002, 79.871, 171.4891
45.000000, 79.825, 171.1454
45.500000, 79.790, 170.7797
46.200001, 79.746, 170.4806
46.799999, 79.722, 170.5145
47.500000, 79.702, 170.6692
48.200001, 79.666, 170.6884
48.700001, 79.632, 170.5893
49.400002, 79.591, 170.3701
50.000000, 79.567, 170.2004
50.799999, 79.537, 170.0980
51.500000, 79.501, 170.0838
52.200001, 79.455, 170.0551
53.000000, 79.409, 170.0060
53.799999, 79.373, 169.9586
54.500000, 79.335, 169.8982
55.200001, 79.297, 169.8010
56.000000, 79.284, 169.5359
57.000000, 79.272, 169.0412
58.000000, 79.182, 169.1339
59.000000, 79.091, 169.6090
60.000000, 79.035, 169.6228
60.799999, 78.996, 169.5367
61.500000, 78.965, 169.5393
62.200001, 78.934, 169.5391
63.000000, 78.896, 169.4860
64.000000, 78.854, 169.4431
65.000000, 78.811, 169.4842
66.000000, 78.760, 169.5148
67.000000, 78.711, 169.5293
68.000000, 78.664, 169.5756
69.000000, 78.617, 169.5794
70.000000, 78.579, 169.5477
71.000000, 78.541, 169.5986
72.000000, 78.494, 169.7158
73.000000, 78.453, 169.7791
74.000000, 78.420, 169.8036
75.000000, 78.379, 169.8732
76.199997, 78.326, 169.9386
77.500000, 78.275, 169.9672
78.800003, 78.231, 170.0272
80.000000, 78.194, 170.0740
81.199997, 78.142, 170.1628
82.500000, 78.080, 170.2798
83.800003, 78.037, 170.3606
85.000000, 77.997, 170.4144
86.199997, 77.957, 170.5043
87.500000, 77.916, 170.6764
88.500000, 77.878, 170.7798
90.000000, 77.832, 170.8213
91.199997, 77.793, 170.8871
92.500000, 77.753, 171.0178
93.800003, 77.717, 171.1608
95.000000, 77.678, 171.3628
96.199997, 77.646, 171.5041
97.500000, 77.612, 171.5477
98.800003, 77.573, 171.6099
100.000000, 77.543, 171.7572
101.500000, 77.507, 171.9673
103.000000, 77.465, 172.0988
104.400002, 77.421, 172.1763
106.000000, 77.381, 172.0984
107.500000, 77.343, 172.1296
109.000000, 77.302, 172.5244
110.599998, 77.265, 172.9246
112.000000, 77.231, 173.1305
113.800003, 77.188, 173.3112
115.000000, 77.165, 173.4357
117.199997, 77.120, 173.6322
118.000000, 77.101, 173.6826
120.599998, 77.042, 173.9545
122.000000, 77.013, 174.2009
124.099998, 76.968, 174.4951
125.000000, 76.945, 174.5903
126.500000, 76.909, 174.7291
128.000000, 76.882, 174.9095
131.500000, 76.820, 175.3849
132.000000, 76.810, 175.4286
134.000000, 76.773, 175.6013
136.000000, 76.738, 175.8503
138.000000, 76.707, 176.0853
140.000000, 76.666, 176.2987
143.000000, 76.604, 176.6487
145.000000, 76.571, 176.9142
147.500000, 76.537, 177.2010
150.000000, 76.498, 177.4710
152.500000, 76.457, 177.7475
155.000000, 76.417, 178.0201
157.500000, 76.386, 178.3182
160.000000, 76.356, 178.6200
162.500000, 76.318, 178.9191
165.000000, 76.285, 179.1705
167.500000, 76.250, 179.4297
170.000000, 76.216, 179.7226
172.500000, 76.180, 179.9934
175.000000, 76.145, -179.7413
177.500000, 76.114, -179.4878
180.000000, 76.090, -179.1971
182.500000, 76.063, -178.8689
185.000000, 76.029, -178.5987
187.500000, 75.996, -178.3073
190.000000, 75.970, -178.0383
192.500000, 75.950, -177.7606
195.000000, 75.926, -177.4752
197.500000, 75.895, -177.2227
200.000000, 75.865, -176.9342
203.000000, 75.832, -176.5759
206.000000, 75.800, -176.2507
209.000000, 75.766, -175.9254
212.000000, 75.730, -175.6196
214.000000, 75.706, -175.4226
218.000000, 75.669, -175.0195
220.000000, 75.653, -174.8124
224.000000, 75.614, -174.3505
227.000000, 75.581, -174.0284
230.000000, 75.548, -173.7073
233.000000, 75.524, -173.4170
236.000000, 75.495, -173.1566
240.000000, 75.444, -172.7504
243.000000, 75.409, -172.3572
247.000000, 75.372, -171.8439
250.000000, 75.346, -171.4741
254.000000, 75.308, -170.9486
258.000000, 75.267, -170.4781
262.000000, 75.218, -170.0462
265.000000, 75.184, -169.6967
269.000000, 75.150, -169.1827
272.000000, 75.128, -168.7455
276.000000, 75.098, -168.1342
280.000000, 75.075, -167.5672
285.000000, 75.054, -166.8135
290.000000, 75.037, -166.1168
295.000000, 75.042, -165.4240
300.000000, 75.054, -164.7657
304.000000, 75.064, -164.3027
307.000000, 75.071, -163.9969
311.000000, 75.079, -163.6698
315.000000, 75.086, -163.3968
320.000000, 75.092, -163.0671
325.000000, 75.087, -162.7410
330.000000, 75.073, -162.3873
335.000000, 75.061, -162.0310
340.000000, 75.047, -161.7099
345.000000, 75.027, -161.3923
350.000000, 75.002, -161.0555
355.000000, 74.972, -160.7149
360.000000, 74.941, -160.3359
365.000000, 74.913, -159.9414
370.000000, 74.882, -159.5380
375.000000, 74.850, -159.1500
382.000000, 74.812, -158.6212
387.000000, 74.788, -158.2274
395.000000, 74.741, -157.5524
400.000000, 74.710, -157.1158
406.000000, 74.678, -156.5781
412.000000, 74.648, -156.0736
418.000000, 74.614, -155.5972
425.000000, 74.581, -154.9850
431.000000, 74.555, -154.5013
437.000000, 74.529, -154.0094
444.000000, 74.490, -153.4252
450.000000, 74.457, -152.9040
455.000000, 74.431, -152.4637
462.000000, 74.391, -151.8653
468.000000, 74.358, -151.3969
475.000000, 74.319, -150.8247
482.000000, 74.280, -150.2351
487.000000, 74.253, -149.8096
494.000000, 74.217, -149.1975
500.000000, 74.185, -148.6440
508.000000, 74.147, -147.9179
515.000000, 74.112, -147.3264
522.000000, 74.074, -146.7355
530.000000, 74.032, -145.9984
538.000000, 73.992, -145.2297
545.000000, 73.956, -144.5768
552.000000, 73.918, -143.9118
560.000000, 73.880, -143.1587
570.000000, 73.836, -142.2314
580.000000, 73.793, -141.2796
590.000000, 73.750, -140.3516
600.000000, 73.702, -139.3583
608.000000, 73.667, -138.6044
615.000000, 73.638, -137.9674
622.000000, 73.614, -137.2929
630.000000, 73.586, -136.4739
640.000000, 73.550, -135.4608
650.000000, 73.519, -134.4932
660.000000, 73.482, -133.4953
670.000000, 73.448, -132.5073
680.000000, 73.419, -131.5285
690.000000, 73.388, -130.4972
700.000000, 73.360, -129.4773
710.000000, 73.333, -128.4433
720.000000, 73.308, -127.4038
730.000000, 73.284, -126.3490
740.000000, 73.262, -125.3029
750.000000, 73.248, -124.2660
762.000000, 73.239, -122.9881
775.000000, 73.224, -121.6243
788.000000, 73.208, -120.2709
800.000000, 73.199, -119.0078
812.000000, 73.190, -117.7665
825.000000, 73.180, -116.3850
838.000000, 73.182, -114.9878
850.000000, 73.185, -113.6943
862.000000, 73.196, -112.3884
875.000000, 73.215, -110.9861
885.000000, 73.234, -109.8949
900.000000, 73.271, -108.2797
912.000000, 73.300, -107.0173
925.000000, 73.335, -105.6580
938.000000, 73.380, -104.2929
950.000000, 73.428, -103.0435
962.000000, 73.479, -101.8552
975.000000, 73.539, -100.6050
988.000000, 73.604, -99.3664
1000.000000, 73.668, -98.2312
1015.000000, 73.751, -96.8685
1030.000000, 73.835, -95.5739
1044.000000, 73.914, -94.4200
1060.000000, 74.013, -93.1367
1075.000000, 74.108, -91.9856
1090.000000, 74.203, -90.9029
1106.000000, 74.304, -89.7975
1120.000000, 74.391, -88.8550
1138.000000, 74.502, -87.6938
1150.000000, 74.574, -86.9828
1172.000000, 74.698, -85.7036
1180.000000, 74.741, -85.2588
1206.000000, 74.880, -83.8686
1220.000000, 74.953, -83.1377
1241.000000, 75.060, -82.0890
1250.000000, 75.103, -81.6564
1265.000000, 75.170, -80.9405
1280.000000, 75.232, -80.2250
1315.000000, 75.364, -78.5830
1320.000000, 75.382, -78.3556
1340.000000, 75.454, -77.4568
1360.000000, 75.522, -76.5512
1380.000000, 75.583, -75.6384
1400.000000, 75.646, -74.7334
1430.000000, 75.735, -73.3947
1450.000000, 75.787, -72.4774
1475.000000, 75.851, -71.3184
1500.000000, 75.918, -70.1621
1525.000000, 75.987, -69.0077
1550.000000, 76.053, -67.8251
1575.000000, 76.117, -66.6318
1600.000000, 76.181, -65.4736
1625.000000, 76.248, -64.3103
1650.000000, 76.318, -63.1260
1675.000000, 76.390, -61.9435
1700.000000, 76.464, -60.7679
1725.000000, 76.539, -59.6119
1750.000000, 76.615, -58.4533
1775.000000, 76.697, -57.3004
1800.000000, 76.780, -56.1569
1825.000000, 76.865, -55.0112
1850.000000, 76.955, -53.8888
1875.000000, 77.048, -52.8130
1900.000000, 77.143, -51.7503
1925.000000, 77.241, -50.7006
1950.000000, 77.342, -49.6620
1975.000000, 77.444, -48.6496
2000.000000, 77.549, -47.6759
2030.000000, 77.680, -46.5334
2060.000000, 77.811, -45.4218
2090.000000, 77.944, -44.3427
2120.000000, 78.082, -43.3249
2140.000000, 78.176, -42.6753
2180.000000, 78.367, -41.4411
2200.000000, 78.464, -40.8515
2240.000000, 78.660, -39.7521
2270.000000, 78.808, -39.0009
2300.000000, 78.955, -38.3084
2330.000000, 79.102, -37.6698
2360.000000, 79.249, -37.0895
2400.000000, 79.442, -36.4193
2430.000000, 79.587, -35.9905
2470.000000, 79.774, -35.5267
2500.000000, 79.906, -35.2480
2540.000000, 80.075, -34.9490
2580.000000, 80.233, -34.7573
2620.000000, 80.381, -34.6690
2650.000000, 80.483, -34.6493
2690.000000, 80.603, -34.6926
2720.000000, 80.683, -34.7718
2760.000000, 80.776, -34.9137
2800.000000, 80.852, -35.0783
2850.000000, 80.927, -35.2771
2900.000000, 80.983, -35.4899
2950.000000, 81.023, -35.7643
3000.000000, 81.043, -36.0508
3040.000000, 81.039, -36.2918
3070.000000, 81.025, -36.4708
3110.000000, 80.991, -36.6899
3150.000000, 80.943, -36.8507
3200.000000, 80.866, -36.9580
3250.000000, 80.771, -36.9676
3300.000000, 80.664, -36.8560
3350.000000, 80.548, -36.6272
3400.000000, 80.427, -36.2906
3450.000000, 80.301, -35.8501
3500.000000, 80.174, -35.2850
3550.000000, 80.052, -34.6089
3600.000000, 79.933, -33.8610
3650.000000, 79.820, -33.0437
3700.000000, 79.713, -32.1561
3750.000000, 79.609, -31.2054
3820.000000, 79.474, -29.7781
3870.000000, 79.387, -28.7044
3950.000000, 79.270, -26.9338
4000.000000, 79.210, -25.7999
4060.000000, 79.146, -24.4202
4120.000000, 79.098, -23.0354
4180.000000, 79.067, -21.6655
4250.000000, 79.045, -20.1161
4310.000000, 79.036, -18.8450
4370.000000, 79.034, -17.6635
4440.000000, 79.041, -16.3796
4500.000000, 79.049, -15.3578
4550.000000, 79.056, -14.5648
4620.000000, 79.063, -13.5359
4680.000000, 79.063, -12.7243
4750.000000, 79.056, -11.8663
4820.000000, 79.036, -11.0719
4870.000000, 79.015, -10.5373
4940.000000, 78.971, -9.8130
5000.000000, 78.921, -9.1831
5080.000000, 78.832, -8.2925
5150.000000, 78.737, -7.4359
5220.000000, 78.631, -6.4596
5300.000000, 78.505, -5.1746
5380.000000, 78.385, -3.6858
5450.000000, 78.290, -2.2371
5520.000000, 78.211, -0.6826
5600.000000, 78.148, 1.1545
5700.000000, 78.111, 3.4769
5800.000000, 78.117, 5.6986
5900.000000, 78.149, 7.7320
6000.000000, 78.184, 9.5831
6080.000000, 78.209, 11.0342
6150.000000, 78.230, 12.3123
6220.000000, 78.254, 13.6173
6300.000000, 78.291, 15.1679
6400.000000, 78.368, 17.1937
6500.000000, 78.493, 19.2555
6600.000000, 78.678, 21.2715
6700.000000, 78.933, 23.1097
6800.000000, 79.261, 24.6254
6900.000000, 79.656, 25.6494
7000.000000, 80.107, 25.9783
7100.000000, 80.600, 25.4093
7200.000000, 81.102, 23.7059
7300.000000, 81.533, 20.6109
7400.000000, 81.761, 16.4373
7500.000000, 81.801, 12.2512
7620.000000, 81.712, 6.8165
7750.000000, 81.272, 0.4405
7880.000000, 80.445, -4.8609
8000.000000, 79.442, -8.0203
8120.000000, 78.286, -9.1168
8250.000000, 76.972, -6.6861
8380.000000, 76.197, 0.2075
8500.000000, 76.260, 4.6355
8620.000000, 76.358, 4.3308
8750.000000, 75.870, 3.2398
8850.000000, 75.358, 4.3422
9000.000000, 74.775, 7.7305
9120.000000, 74.502, 10.8146
9250.000000, 74.370, 13.9997
9380.000000, 74.370, 16.6486
9500.000000, 74.442, 18.3177
9620.000000, 74.508, 19.1116
9750.000000, 74.479, 19.3578
9880.000000, 74.328, 19.9823
10000.000000, 74.192, 21.5652
10150.000000, 74.240, 24.5572
10300.000000, 74.675, 27.0582
10440.000000, 75.341, 27.0401
10600.000000, 76.040, 23.3338
10750.000000, 76.319, 17.1845
10900.000000, 76.104, 10.3313
11060.000000, 75.397, 4.3059
11200.000000, 74.544, 1.0965
11380.000000, 73.404, -0.1279
11500.000000, 72.735, 0.4355
11720.000000, 71.821, 2.8653
11800.000000, 71.591, 3.8837
12060.000000, 71.141, 6.2377
12200.000000, 70.978, 6.4322
12410.000000, 70.643, 5.8612
12500.000000, 70.469, 5.6041
12650.000000, 70.181, 5.0797
12800.000000, 69.871, 4.2409
13150.000000, 68.862, 2.2459
13200.000000, 68.694, 2.0960
13400.000000, 67.998, 2.0250
13600.000000, 67.302, 2.7413
13800.000000, 66.668, 4.0265
14000.000000, 66.119, 5.7388
14300.000000, 65.477, 8.8839
14500.000000, 65.188, 11.1480
14750.000000, 65.017, 13.5935
15000.000000, 65.033, 15.1384
15250.000000, 65.071, 15.3804
15500.000000, 65.026, 16.6572
15750.000000, 65.590, 20.0697
16000.000000, 67.084, 19.7311
16250.000000, 68.971, 11.7341
16500.000000, 70.438, -5.5009
16750.000000, 70.411, -29.2281
17000.000000, 68.438, -51.3151
17250.000000, 65.135, -65.3782
17500.000000, 61.369, -70.3901
17750.000000, 57.683, -65.9359
18000.000000, 55.325, -48.7235
18250.000000, 55.603, -41.2318
18500.000000, 55.234, -52.2693
18750.000000, 52.948, -64.1640
19000.000000, 49.543, -69.9939
19250.000000, 45.773, -70.5399
19500.000000, 42.048, -67.7141
19750.000000, 38.825, -62.4346
