* Measurement data measured by REW V5.31.3
* Source: Input device not selected, no input selected, L, volume: no control
* Format: 256k Log Swept Sine, 1 sweep at -11.0 dBFS with no timing reference
* Dated: Jul 19, 2025 12:29:12 AM
* REW Settings:
*  C-weighting compensation: Off
*  Target level: 75.0 dB
* Note: ; 
* Measurement: Pure (Stock Wide Mid) L
* Smoothing: 1/24 octave
* Frequency Step: 1/48 octave
* Start Frequency: 20.300 Hz
*
* Freq(Hz), SPL(dB), Phase(degrees)
20.299999, 81.750, -176.6982
20.600000, 81.737, -176.9825
20.900000, 81.718, -177.2808
21.200001, 81.696, -177.5594
21.400000, 81.680, -177.7369
21.799999, 81.650, -178.0868
22.000000, 81.636, -178.2641
22.400000, 81.608, -178.6269
22.700001, 81.590, -178.9021
23.000000, 81.574, -179.1741
23.299999, 81.560, -179.4392
23.600000, 81.549, -179.6971
24.000000, 81.534, 179.9657
24.299999, 81.520, 179.7139
24.700001, 81.496, 179.3785
25.000000, 81.474, 179.1299
25.400000, 81.440, 178.8073
25.799999, 81.407, 178.4963
26.200001, 81.380, 178.1931
26.500000, 81.364, 177.9685
26.900000, 81.345, 177.6756
27.200001, 81.331, 177.4671
27.600000, 81.309, 177.2147
28.000000, 81.283, 176.9965
28.500000, 81.249, 176.7550
29.000000, 81.218, 176.5056
29.500000, 81.188, 176.2164
30.000000, 81.156, 175.9011
30.400000, 81.127, 175.6602
30.700001, 81.103, 175.4980
31.100000, 81.073, 175.3059
31.500000, 81.046, 175.1247
32.000000, 81.017, 174.8853
32.500000, 80.991, 174.6310
33.000000, 80.964, 174.4014
33.500000, 80.937, 174.2264
34.000000, 80.909, 174.0814
34.500000, 80.879, 173.9080
35.000000, 80.842, 173.6829
35.500000, 80.798, 173.4464
36.000000, 80.756, 173.2534
36.500000, 80.723, 173.1092
37.000000, 80.701, 172.9678
37.500000, 80.679, 172.7923
38.200001, 80.634, 172.5258
38.700001, 80.598, 172.3726
39.500000, 80.552, 172.1946
40.000000, 80.529, 172.0831
40.599998, 80.494, 171.9353
41.200001, 80.448, 171.7953
41.799999, 80.403, 171.6759
42.500000, 80.362, 171.5399
43.099998, 80.334, 171.4022
43.700001, 80.301, 171.2476
44.400002, 80.251, 171.0819
45.000000, 80.209, 170.9696
45.500000, 80.181, 170.8866
46.200001, 80.151, 170.7734
46.799999, 80.122, 170.6963
47.500000, 80.080, 170.6404
48.200001, 80.036, 170.5665
48.700001, 80.010, 170.4724
49.400002, 79.975, 170.3100
50.000000, 79.942, 170.1973
50.799999, 79.894, 170.1051
51.500000, 79.852, 170.0275
52.200001, 79.813, 169.9413
53.000000, 79.772, 169.8903
53.799999, 79.729, 169.8711
54.500000, 79.688, 169.8015
55.200001, 79.653, 169.6929
56.000000, 79.635, 169.5888
57.000000, 79.617, 169.4831
58.000000, 79.535, 169.4891
59.000000, 79.447, 169.6184
60.000000, 79.405, 169.6085
60.799999, 79.376, 169.5637
61.500000, 79.344, 169.5710
62.200001, 79.311, 169.5747
63.000000, 79.275, 169.5304
64.000000, 79.227, 169.5066
65.000000, 79.179, 169.5599
66.000000, 79.133, 169.5523
67.000000, 79.088, 169.5159
68.000000, 79.051, 169.5470
69.000000, 79.009, 169.6102
70.000000, 78.965, 169.6445
71.000000, 78.928, 169.6086
72.000000, 78.887, 169.5996
73.000000, 78.841, 169.6637
74.000000, 78.796, 169.7466
75.000000, 78.758, 169.8337
76.199997, 78.718, 169.8790
77.500000, 78.672, 169.8738
78.800003, 78.619, 169.9569
80.000000, 78.569, 170.0702
81.199997, 78.525, 170.1033
82.500000, 78.479, 170.2137
83.800003, 78.436, 170.3923
85.000000, 78.389, 170.4974
86.199997, 78.337, 170.5819
87.500000, 78.300, 170.6699
88.500000, 78.272, 170.7101
90.000000, 78.220, 170.8160
91.199997, 78.189, 170.9602
92.500000, 78.158, 171.1620
93.800003, 78.119, 171.2678
95.000000, 78.084, 171.3679
96.199997, 78.053, 171.5237
97.500000, 78.010, 171.6486
98.800003, 77.962, 171.7553
100.000000, 77.919, 171.8491
101.500000, 77.869, 171.9958
103.000000, 77.828, 172.2193
104.400002, 77.802, 172.4595
106.000000, 77.743, 172.9015
107.500000, 77.706, 173.0986
109.000000, 77.689, 172.9150
110.599998, 77.658, 172.9593
112.000000, 77.625, 173.0875
113.800003, 77.569, 173.3132
115.000000, 77.533, 173.4771
117.199997, 77.495, 173.6586
118.000000, 77.483, 173.6900
120.599998, 77.444, 173.8702
122.000000, 77.414, 174.0852
124.099998, 77.363, 174.4552
125.000000, 77.342, 174.5588
126.500000, 77.305, 174.6622
128.000000, 77.273, 174.7761
131.500000, 77.193, 175.1783
132.000000, 77.181, 175.2417
134.000000, 77.146, 175.4901
136.000000, 77.122, 175.7101
138.000000, 77.100, 175.9271
140.000000, 77.076, 176.1916
143.000000, 77.014, 176.5393
145.000000, 76.974, 176.7163
147.500000, 76.932, 177.0043
150.000000, 76.892, 177.3216
152.500000, 76.849, 177.5588
155.000000, 76.812, 177.8337
157.500000, 76.765, 178.1107
160.000000, 76.717, 178.3882
162.500000, 76.688, 178.6664
165.000000, 76.657, 178.9392
167.500000, 76.624, 179.2197
170.000000, 76.591, 179.5093
172.500000, 76.554, 179.7693
175.000000, 76.514, -179.9603
177.500000, 76.475, -179.7028
180.000000, 76.443, -179.3843
182.500000, 76.412, -179.0870
185.000000, 76.378, -178.8004
187.500000, 76.336, -178.5181
190.000000, 76.292, -178.2412
192.500000, 76.256, -177.9466
195.000000, 76.222, -177.6495
197.500000, 76.185, -177.3322
200.000000, 76.146, -177.0047
203.000000, 76.094, -176.6057
206.000000, 76.039, -176.1567
209.000000, 75.987, -175.6394
212.000000, 75.942, -175.0949
214.000000, 75.916, -174.6841
218.000000, 75.866, -173.6868
220.000000, 75.851, -173.1170
224.000000, 75.862, -171.9245
227.000000, 75.911, -171.1343
230.000000, 75.985, -170.5584
233.000000, 76.065, -170.4115
236.000000, 76.134, -170.4391
240.000000, 76.178, -170.5243
243.000000, 76.185, -170.5731
247.000000, 76.172, -170.6240
250.000000, 76.147, -170.6484
254.000000, 76.107, -170.5802
258.000000, 76.064, -170.3587
262.000000, 76.025, -170.0667
265.000000, 75.998, -169.8689
269.000000, 75.966, -169.6146
272.000000, 75.937, -169.4081
276.000000, 75.891, -169.0961
280.000000, 75.858, -168.7980
285.000000, 75.820, -168.4023
290.000000, 75.783, -167.9764
295.000000, 75.748, -167.5639
300.000000, 75.707, -167.1116
304.000000, 75.674, -166.7420
307.000000, 75.651, -166.4915
311.000000, 75.622, -166.1832
315.000000, 75.595, -165.8348
320.000000, 75.560, -165.3595
325.000000, 75.526, -164.9053
330.000000, 75.493, -164.4586
335.000000, 75.462, -164.0444
340.000000, 75.429, -163.6294
345.000000, 75.396, -163.1999
350.000000, 75.368, -162.7686
355.000000, 75.340, -162.3352
360.000000, 75.310, -161.9295
365.000000, 75.277, -161.4930
370.000000, 75.244, -161.0438
375.000000, 75.213, -160.6066
382.000000, 75.176, -159.9943
387.000000, 75.151, -159.5506
395.000000, 75.106, -158.8221
400.000000, 75.079, -158.3879
406.000000, 75.050, -157.8744
412.000000, 75.019, -157.3410
418.000000, 74.984, -156.8275
425.000000, 74.948, -156.2170
431.000000, 74.917, -155.7059
437.000000, 74.889, -155.2071
444.000000, 74.855, -154.6280
450.000000, 74.824, -154.1181
455.000000, 74.798, -153.6943
462.000000, 74.762, -153.0672
468.000000, 74.728, -152.5062
475.000000, 74.690, -151.8483
482.000000, 74.659, -151.2279
487.000000, 74.640, -150.7956
494.000000, 74.614, -150.1758
500.000000, 74.592, -149.6489
508.000000, 74.558, -148.9951
515.000000, 74.530, -148.4272
522.000000, 74.501, -147.8472
530.000000, 74.459, -147.1659
538.000000, 74.413, -146.4745
545.000000, 74.378, -145.8915
552.000000, 74.348, -145.3031
560.000000, 74.313, -144.6056
570.000000, 74.265, -143.7012
580.000000, 74.220, -142.7667
590.000000, 74.172, -141.8341
600.000000, 74.130, -140.9182
608.000000, 74.095, -140.1940
615.000000, 74.064, -139.5440
622.000000, 74.033, -138.8845
630.000000, 74.000, -138.1329
640.000000, 73.967, -137.1897
650.000000, 73.934, -136.2063
660.000000, 73.897, -135.2346
670.000000, 73.857, -134.2655
680.000000, 73.819, -133.2878
690.000000, 73.788, -132.2962
700.000000, 73.758, -131.2881
710.000000, 73.728, -130.3041
720.000000, 73.701, -129.3165
730.000000, 73.677, -128.3074
740.000000, 73.656, -127.3002
750.000000, 73.638, -126.2829
762.000000, 73.619, -125.0270
775.000000, 73.596, -123.6698
788.000000, 73.579, -122.3024
800.000000, 73.571, -121.0364
812.000000, 73.571, -119.7610
825.000000, 73.572, -118.3825
838.000000, 73.576, -117.0042
850.000000, 73.583, -115.7443
862.000000, 73.594, -114.4812
875.000000, 73.611, -113.0898
885.000000, 73.629, -112.0372
900.000000, 73.664, -110.4888
912.000000, 73.696, -109.2630
925.000000, 73.736, -107.9327
938.000000, 73.782, -106.6204
950.000000, 73.830, -105.4515
962.000000, 73.882, -104.2989
975.000000, 73.945, -103.0442
988.000000, 74.010, -101.8010
1000.000000, 74.073, -100.7038
1015.000000, 74.158, -99.4040
1030.000000, 74.249, -98.1551
1044.000000, 74.334, -97.0339
1060.000000, 74.434, -95.7966
1075.000000, 74.529, -94.6936
1090.000000, 74.629, -93.6681
1106.000000, 74.733, -92.6036
1120.000000, 74.822, -91.7210
1138.000000, 74.932, -90.6433
1150.000000, 75.006, -89.9653
1172.000000, 75.136, -88.7665
1180.000000, 75.183, -88.3462
1206.000000, 75.331, -87.0648
1220.000000, 75.402, -86.4132
1241.000000, 75.504, -85.4623
1250.000000, 75.546, -85.0617
1265.000000, 75.615, -84.4026
1280.000000, 75.680, -83.7624
1315.000000, 75.818, -82.3523
1320.000000, 75.835, -82.1453
1340.000000, 75.906, -81.3200
1360.000000, 75.977, -80.4921
1380.000000, 76.035, -79.6820
1400.000000, 76.089, -78.8801
1430.000000, 76.170, -77.6794
1450.000000, 76.223, -76.8696
1475.000000, 76.286, -75.8607
1500.000000, 76.349, -74.8336
1525.000000, 76.410, -73.7837
1550.000000, 76.471, -72.7375
1575.000000, 76.531, -71.6897
1600.000000, 76.588, -70.6330
1625.000000, 76.648, -69.5837
1650.000000, 76.710, -68.5227
1675.000000, 76.776, -67.4455
1700.000000, 76.842, -66.3781
1725.000000, 76.908, -65.3244
1750.000000, 76.980, -64.2927
1775.000000, 77.056, -63.2674
1800.000000, 77.131, -62.2429
1825.000000, 77.208, -61.2081
1850.000000, 77.289, -60.1878
1875.000000, 77.374, -59.2014
1900.000000, 77.459, -58.2260
1925.000000, 77.545, -57.2716
1950.000000, 77.635, -56.3409
1975.000000, 77.730, -55.4318
2000.000000, 77.828, -54.5474
2030.000000, 77.945, -53.5139
2060.000000, 78.065, -52.5178
2090.000000, 78.189, -51.5481
2120.000000, 78.315, -50.6140
2140.000000, 78.400, -50.0219
2180.000000, 78.576, -48.9076
2200.000000, 78.666, -48.3863
2240.000000, 78.846, -47.4121
2270.000000, 78.984, -46.7471
2300.000000, 79.122, -46.1515
2330.000000, 79.260, -45.6021
2360.000000, 79.397, -45.1149
2400.000000, 79.581, -44.5540
2430.000000, 79.717, -44.2086
2470.000000, 79.891, -43.8467
2500.000000, 80.018, -43.6506
2540.000000, 80.182, -43.4690
2580.000000, 80.338, -43.4062
2620.000000, 80.481, -43.4474
2650.000000, 80.578, -43.5334
2690.000000, 80.694, -43.7282
2720.000000, 80.773, -43.9287
2760.000000, 80.865, -44.2380
2800.000000, 80.941, -44.5895
2850.000000, 81.015, -45.0837
2900.000000, 81.061, -45.6634
2950.000000, 81.080, -46.2797
3000.000000, 81.073, -46.8916
3040.000000, 81.044, -47.3660
3070.000000, 81.010, -47.7131
3110.000000, 80.952, -48.1376
3150.000000, 80.876, -48.5048
3200.000000, 80.764, -48.8551
3250.000000, 80.636, -49.0823
3300.000000, 80.498, -49.1939
3350.000000, 80.354, -49.1969
3400.000000, 80.203, -49.1002
3450.000000, 80.047, -48.9276
3500.000000, 79.888, -48.6549
3550.000000, 79.726, -48.3060
3600.000000, 79.561, -47.8512
3650.000000, 79.395, -47.2987
3700.000000, 79.231, -46.6572
3750.000000, 79.072, -45.9304
3820.000000, 78.858, -44.7767
3870.000000, 78.713, -43.8863
3950.000000, 78.498, -42.3806
4000.000000, 78.373, -41.3794
4060.000000, 78.232, -40.1362
4120.000000, 78.102, -38.8782
4180.000000, 77.985, -37.6139
4250.000000, 77.862, -36.1433
4310.000000, 77.766, -34.8929
4370.000000, 77.676, -33.6507
4440.000000, 77.578, -32.2367
4500.000000, 77.501, -31.0590
4550.000000, 77.443, -30.1085
4620.000000, 77.364, -28.8223
4680.000000, 77.297, -27.7502
4750.000000, 77.219, -26.5475
4820.000000, 77.139, -25.3955
4870.000000, 77.078, -24.6019
4940.000000, 76.984, -23.5435
5000.000000, 76.895, -22.6583
5080.000000, 76.763, -21.4575
5150.000000, 76.633, -20.3680
5220.000000, 76.493, -19.1768
5300.000000, 76.330, -17.6345
5380.000000, 76.171, -15.9274
5450.000000, 76.045, -14.2827
5520.000000, 75.938, -12.5669
5600.000000, 75.841, -10.5656
5700.000000, 75.758, -8.1087
5800.000000, 75.703, -5.8401
5900.000000, 75.656, -3.7516
6000.000000, 75.601, -1.8242
6080.000000, 75.544, -0.3343
6150.000000, 75.485, 0.9864
6220.000000, 75.419, 2.3714
6300.000000, 75.341, 4.0843
6400.000000, 75.249, 6.3815
6500.000000, 75.172, 8.8643
6600.000000, 75.130, 11.5635
6700.000000, 75.127, 14.3993
6800.000000, 75.173, 17.3090
6900.000000, 75.275, 20.2712
7000.000000, 75.441, 23.2167
7100.000000, 75.684, 26.0512
7200.000000, 76.004, 28.6156
7300.000000, 76.377, 30.6507
7400.000000, 76.739, 32.3726
7500.000000, 77.180, 34.5752
7620.000000, 77.981, 36.4768
7750.000000, 79.008, 36.1899
7880.000000, 80.066, 33.3487
8000.000000, 80.930, 28.0332
8120.000000, 81.448, 20.3790
8250.000000, 81.408, 11.6851
8380.000000, 81.126, 5.2838
8500.000000, 80.987, -1.1382
8620.000000, 80.554, -9.5879
8750.000000, 79.308, -17.3123
8850.000000, 78.124, -20.1111
9000.000000, 76.509, -20.7625
9120.000000, 75.440, -19.6941
9250.000000, 74.477, -17.8127
9380.000000, 73.679, -15.6685
9500.000000, 73.042, -13.7923
9620.000000, 72.439, -12.1405
9750.000000, 71.754, -10.3318
9880.000000, 71.018, -7.8057
10000.000000, 70.359, -4.4002
10150.000000, 69.711, 1.2763
10300.000000, 69.372, 7.5302
10440.000000, 69.325, 12.7659
10600.000000, 69.479, 17.4417
10750.000000, 69.727, 20.4995
10900.000000, 69.993, 22.3030
11060.000000, 70.237, 22.9694
11200.000000, 70.367, 22.6607
11380.000000, 70.363, 21.5397
11500.000000, 70.238, 20.6950
11720.000000, 69.781, 19.7943
11800.000000, 69.567, 19.8305
12060.000000, 68.831, 21.3686
12200.000000, 68.433, 22.9881
12410.000000, 67.862, 26.7919
12500.000000, 67.677, 29.0355
12650.000000, 67.523, 33.1231
12800.000000, 67.539, 36.9424
13150.000000, 67.929, 44.2187
13200.000000, 68.011, 45.0908
13400.000000, 68.410, 48.2406
13600.000000, 68.915, 50.8115
13800.000000, 69.525, 52.6815
14000.000000, 70.245, 53.7667
14300.000000, 71.520, 53.4566
14500.000000, 72.510, 51.5317
14750.000000, 73.844, 46.2248
15000.000000, 75.068, 36.7074
15250.000000, 75.718, 23.0441
15500.000000, 75.379, 8.8796
15750.000000, 74.470, -1.7931
16000.000000, 73.480, -10.1048
16250.000000, 72.378, -16.6809
16500.000000, 71.213, -21.2236
16750.000000, 70.078, -23.9667
17000.000000, 69.017, -25.3708
17250.000000, 67.995, -25.7315
17500.000000, 66.917, -24.6647
17750.000000, 65.911, -19.3546
18000.000000, 66.359, -7.4988
18250.000000, 68.375, -7.6117
18500.000000, 69.086, -22.7905
18750.000000, 68.061, -39.1179
19000.000000, 66.128, -52.2667
19250.000000, 63.754, -63.3141
19500.000000, 60.981, -73.2325
19750.000000, 57.906, -81.8598
