* Measurement data measured by REW V5.31.3
* Source: Input device not selected, no input selected, L, volume: no control
* Format: 256k Log Swept Sine, 1 sweep at -11.0 dBFS with no timing reference
* Dated: Jul 19, 2025 12:13:54 AM
* REW Settings:
*  C-weighting compensation: Off
*  Target level: 75.0 dB
* Note: ; 
* Measurement: Pure (H570) L
* Smoothing: 1/24 octave
* Frequency Step: 1/48 octave
* Start Frequency: 20.300 Hz
*
* Freq(Hz), SPL(dB), Phase(degrees)
20.299999, 81.530, -178.6306
20.600000, 81.510, -178.8920
20.900000, 81.480, -179.2236
21.200001, 81.445, -179.5865
21.400000, 81.422, -179.8271
21.799999, 81.386, 179.7537
22.000000, 81.376, 179.5946
22.400000, 81.375, 179.3798
22.700001, 81.389, 179.2693
23.000000, 81.407, 179.1455
23.299999, 81.418, 178.9635
23.600000, 81.412, 178.7045
24.000000, 81.372, 178.2631
24.299999, 81.323, 177.9039
24.700001, 81.249, 177.4520
25.000000, 81.203, 177.1544
25.400000, 81.165, 176.8048
25.799999, 81.149, 176.4819
26.200001, 81.138, 176.1754
26.500000, 81.122, 175.9658
26.900000, 81.087, 175.7272
27.200001, 81.052, 175.5733
27.600000, 81.005, 175.3674
28.000000, 80.967, 175.1143
28.500000, 80.935, 174.7109
29.000000, 80.910, 174.2908
29.500000, 80.881, 173.9690
30.000000, 80.847, 173.7662
30.400000, 80.815, 173.6283
30.700001, 80.790, 173.5006
31.100000, 80.755, 173.2779
31.500000, 80.720, 173.0131
32.000000, 80.681, 172.6940
32.500000, 80.650, 172.4558
33.000000, 80.625, 172.2927
33.500000, 80.597, 172.1324
34.000000, 80.561, 171.9032
34.500000, 80.517, 171.5934
35.000000, 80.471, 171.2618
35.500000, 80.428, 170.9952
36.000000, 80.388, 170.8430
36.500000, 80.353, 170.7781
37.000000, 80.318, 170.7166
37.500000, 80.284, 170.5812
38.200001, 80.236, 170.2589
38.700001, 80.201, 170.0209
39.500000, 80.145, 169.8093
40.000000, 80.109, 169.7788
40.599998, 80.065, 169.7461
41.200001, 80.020, 169.6348
41.799999, 79.975, 169.4533
42.500000, 79.921, 169.2645
43.099998, 79.874, 169.1992
43.700001, 79.834, 169.2026
44.400002, 79.801, 169.1601
45.000000, 79.775, 169.0064
45.500000, 79.742, 168.8330
46.200001, 79.676, 168.6597
46.799999, 79.616, 168.6165
47.500000, 79.562, 168.5748
48.200001, 79.523, 168.4327
48.700001, 79.496, 168.2926
49.400002, 79.460, 168.1169
50.000000, 79.434, 168.0013
50.799999, 79.405, 167.8836
51.500000, 79.369, 167.8370
52.200001, 79.310, 167.8552
53.000000, 79.231, 167.8741
53.799999, 79.173, 167.8153
54.500000, 79.158, 167.7309
55.200001, 79.153, 167.5869
56.000000, 79.089, 167.3080
57.000000, 78.903, 167.1934
58.000000, 78.819, 167.3848
59.000000, 78.861, 167.1684
60.000000, 78.849, 167.0981
60.799999, 78.815, 167.3270
61.500000, 78.783, 167.4835
62.200001, 78.751, 167.5653
63.000000, 78.723, 167.5850
64.000000, 78.682, 167.4686
65.000000, 78.617, 167.4179
66.000000, 78.554, 167.4943
67.000000, 78.501, 167.5294
68.000000, 78.447, 167.5443
69.000000, 78.400, 167.6409
70.000000, 78.364, 167.6935
71.000000, 78.312, 167.6807
72.000000, 78.261, 167.7420
73.000000, 78.233, 167.7863
74.000000, 78.201, 167.8249
75.000000, 78.157, 167.9252
76.199997, 78.109, 168.0099
77.500000, 78.063, 168.0827
78.800003, 78.005, 168.1721
80.000000, 77.953, 168.2190
81.199997, 77.893, 168.2764
82.500000, 77.828, 168.3286
83.800003, 77.804, 168.4221
85.000000, 77.786, 168.6227
86.199997, 77.758, 168.6686
87.500000, 77.712, 168.5945
88.500000, 77.653, 168.6916
90.000000, 77.560, 168.9663
91.199997, 77.497, 169.1818
92.500000, 77.445, 169.2492
93.800003, 77.421, 169.3174
95.000000, 77.388, 169.6229
96.199997, 77.334, 169.8987
97.500000, 77.285, 170.0228
98.800003, 77.253, 170.1417
100.000000, 77.232, 170.2874
101.500000, 77.183, 170.4796
103.000000, 77.124, 170.5035
104.400002, 77.074, 170.5980
106.000000, 76.927, 170.4852
107.500000, 76.830, 170.3751
109.000000, 76.879, 170.9354
110.599998, 76.888, 171.4363
112.000000, 76.869, 171.6549
113.800003, 76.824, 172.1057
115.000000, 76.767, 172.3413
117.199997, 76.683, 172.6697
118.000000, 76.665, 172.6353
120.599998, 76.585, 172.3353
122.000000, 76.569, 172.7670
124.099998, 76.541, 173.3847
125.000000, 76.531, 173.5319
126.500000, 76.519, 173.7994
128.000000, 76.498, 174.0935
131.500000, 76.395, 174.7183
132.000000, 76.383, 174.7936
134.000000, 76.332, 174.9682
136.000000, 76.279, 175.1707
138.000000, 76.226, 175.5941
140.000000, 76.206, 175.9614
143.000000, 76.155, 176.6192
145.000000, 76.100, 177.0099
147.500000, 76.049, 177.5267
150.000000, 76.020, 178.0755
152.500000, 75.997, 178.6717
155.000000, 75.998, 179.2394
157.500000, 76.011, -179.9807
160.000000, 76.039, -179.3333
162.500000, 76.089, -179.0219
165.000000, 76.135, -178.8237
167.500000, 76.167, -178.7703
170.000000, 76.172, -178.7354
172.500000, 76.165, -178.7437
175.000000, 76.159, -178.7963
177.500000, 76.139, -178.7771
180.000000, 76.118, -178.7576
182.500000, 76.095, -178.7384
185.000000, 76.066, -178.6391
187.500000, 76.031, -178.4909
190.000000, 75.996, -178.3290
192.500000, 75.961, -178.1817
195.000000, 75.923, -178.0671
197.500000, 75.886, -177.9133
200.000000, 75.856, -177.6951
203.000000, 75.817, -177.4382
206.000000, 75.772, -177.1944
209.000000, 75.733, -176.9255
212.000000, 75.698, -176.6530
214.000000, 75.675, -176.4557
218.000000, 75.630, -176.0793
220.000000, 75.608, -175.8872
224.000000, 75.563, -175.4881
227.000000, 75.528, -175.1923
230.000000, 75.494, -174.9221
233.000000, 75.458, -174.6522
236.000000, 75.421, -174.3835
240.000000, 75.375, -174.0085
243.000000, 75.347, -173.6980
247.000000, 75.309, -173.2791
250.000000, 75.278, -172.9549
254.000000, 75.234, -172.5214
258.000000, 75.191, -172.0948
262.000000, 75.152, -171.6373
265.000000, 75.121, -171.2721
269.000000, 75.082, -170.8025
272.000000, 75.055, -170.4473
276.000000, 75.021, -169.9492
280.000000, 74.984, -169.4265
285.000000, 74.943, -168.6807
290.000000, 74.930, -167.9105
295.000000, 74.940, -167.2319
300.000000, 74.965, -166.6896
304.000000, 74.983, -166.3583
307.000000, 74.992, -166.1591
311.000000, 74.997, -165.9555
315.000000, 74.991, -165.7756
320.000000, 74.968, -165.5238
325.000000, 74.935, -165.2640
330.000000, 74.897, -164.9482
335.000000, 74.861, -164.5996
340.000000, 74.825, -164.2429
345.000000, 74.787, -163.8384
350.000000, 74.751, -163.4647
355.000000, 74.717, -163.0970
360.000000, 74.683, -162.7039
365.000000, 74.652, -162.2701
370.000000, 74.617, -161.8367
375.000000, 74.582, -161.3931
382.000000, 74.538, -160.7918
387.000000, 74.509, -160.3393
395.000000, 74.464, -159.6041
400.000000, 74.435, -159.2008
406.000000, 74.404, -158.6985
412.000000, 74.378, -158.1687
418.000000, 74.350, -157.6231
425.000000, 74.316, -157.0031
431.000000, 74.290, -156.5103
437.000000, 74.262, -156.0143
444.000000, 74.227, -155.4502
450.000000, 74.195, -154.9828
455.000000, 74.167, -154.6007
462.000000, 74.128, -154.0470
468.000000, 74.096, -153.5434
475.000000, 74.060, -152.9315
482.000000, 74.020, -152.3173
487.000000, 73.991, -151.8904
494.000000, 73.953, -151.2813
500.000000, 73.925, -150.7618
508.000000, 73.884, -150.0941
515.000000, 73.843, -149.5022
522.000000, 73.803, -148.8886
530.000000, 73.762, -148.1889
538.000000, 73.725, -147.4670
545.000000, 73.696, -146.8355
552.000000, 73.664, -146.2064
560.000000, 73.621, -145.4785
570.000000, 73.576, -144.5421
580.000000, 73.538, -143.6373
590.000000, 73.490, -142.7298
600.000000, 73.442, -141.7694
608.000000, 73.410, -141.0251
615.000000, 73.384, -140.4021
622.000000, 73.357, -139.7615
630.000000, 73.324, -138.9979
640.000000, 73.286, -138.0338
650.000000, 73.249, -137.0970
660.000000, 73.209, -136.1182
670.000000, 73.174, -135.1576
680.000000, 73.145, -134.1895
690.000000, 73.120, -133.2092
700.000000, 73.089, -132.2069
710.000000, 73.057, -131.2194
720.000000, 73.032, -130.2459
730.000000, 73.010, -129.2446
740.000000, 72.992, -128.2334
750.000000, 72.973, -127.2126
762.000000, 72.948, -125.9510
775.000000, 72.930, -124.6154
788.000000, 72.921, -123.2523
800.000000, 72.912, -121.9983
812.000000, 72.908, -120.7647
825.000000, 72.906, -119.4331
838.000000, 72.905, -118.0597
850.000000, 72.911, -116.8050
862.000000, 72.925, -115.5644
875.000000, 72.946, -114.1970
885.000000, 72.965, -113.1551
900.000000, 72.999, -111.6398
912.000000, 73.028, -110.4531
925.000000, 73.061, -109.1665
938.000000, 73.105, -107.8956
950.000000, 73.151, -106.7215
962.000000, 73.200, -105.5536
975.000000, 73.254, -104.3473
988.000000, 73.313, -103.2102
1000.000000, 73.372, -102.1730
1015.000000, 73.451, -100.8872
1030.000000, 73.537, -99.6568
1044.000000, 73.618, -98.5502
1060.000000, 73.710, -97.3510
1075.000000, 73.798, -96.2449
1090.000000, 73.884, -95.1909
1106.000000, 73.977, -94.1522
1120.000000, 74.059, -93.2817
1138.000000, 74.159, -92.1775
1150.000000, 74.225, -91.4711
1172.000000, 74.344, -90.2554
1180.000000, 74.385, -89.8328
1206.000000, 74.516, -88.5219
1220.000000, 74.579, -87.8324
1241.000000, 74.670, -86.8463
1250.000000, 74.708, -86.4298
1265.000000, 74.770, -85.7534
1280.000000, 74.827, -85.0960
1315.000000, 74.950, -83.5532
1320.000000, 74.967, -83.3354
1340.000000, 75.031, -82.4698
1360.000000, 75.092, -81.6147
1380.000000, 75.151, -80.7512
1400.000000, 75.206, -79.8626
1430.000000, 75.283, -78.5494
1450.000000, 75.332, -77.6851
1475.000000, 75.392, -76.5969
1500.000000, 75.451, -75.5177
1525.000000, 75.506, -74.4019
1550.000000, 75.563, -73.2663
1575.000000, 75.620, -72.1263
1600.000000, 75.679, -70.9800
1625.000000, 75.742, -69.8675
1650.000000, 75.804, -68.7302
1675.000000, 75.867, -67.5945
1700.000000, 75.936, -66.4825
1725.000000, 76.007, -65.3606
1750.000000, 76.080, -64.2270
1775.000000, 76.156, -63.1269
1800.000000, 76.232, -62.0631
1825.000000, 76.310, -61.0002
1850.000000, 76.391, -59.9362
1875.000000, 76.478, -58.8737
1900.000000, 76.566, -57.8372
1925.000000, 76.658, -56.8207
1950.000000, 76.752, -55.8407
1975.000000, 76.848, -54.8802
2000.000000, 76.945, -53.9371
2030.000000, 77.065, -52.8414
2060.000000, 77.191, -51.7778
2090.000000, 77.320, -50.7600
2120.000000, 77.451, -49.7782
2140.000000, 77.540, -49.1550
2180.000000, 77.722, -47.9707
2200.000000, 77.814, -47.4159
2240.000000, 78.002, -46.3641
2270.000000, 78.143, -45.6358
2300.000000, 78.285, -44.9721
2330.000000, 78.425, -44.3627
2360.000000, 78.567, -43.8089
2400.000000, 78.755, -43.1709
2430.000000, 78.894, -42.7690
2470.000000, 79.074, -42.3384
2500.000000, 79.205, -42.0886
2540.000000, 79.374, -41.8406
2580.000000, 79.533, -41.7094
2620.000000, 79.679, -41.6778
2650.000000, 79.780, -41.7065
2690.000000, 79.902, -41.8031
2720.000000, 79.984, -41.9202
2760.000000, 80.081, -42.1444
2800.000000, 80.161, -42.4047
2850.000000, 80.236, -42.7783
2900.000000, 80.284, -43.2017
2950.000000, 80.306, -43.6205
3000.000000, 80.301, -44.0301
3040.000000, 80.275, -44.3189
3070.000000, 80.246, -44.5027
3110.000000, 80.197, -44.6778
3150.000000, 80.140, -44.7518
3200.000000, 80.066, -44.7389
3250.000000, 79.995, -44.6650
3300.000000, 79.927, -44.5801
3350.000000, 79.852, -44.5222
3400.000000, 79.760, -44.4771
3450.000000, 79.650, -44.3972
3500.000000, 79.526, -44.2337
3550.000000, 79.392, -43.9591
3600.000000, 79.254, -43.5681
3650.000000, 79.112, -43.0856
3700.000000, 78.972, -42.5127
3750.000000, 78.835, -41.8528
3820.000000, 78.649, -40.7842
3870.000000, 78.518, -39.9624
3950.000000, 78.312, -38.5345
4000.000000, 78.186, -37.5385
4060.000000, 78.040, -36.2086
4120.000000, 77.908, -34.7658
4180.000000, 77.802, -33.2526
4250.000000, 77.706, -31.4354
4310.000000, 77.647, -29.9064
4370.000000, 77.603, -28.4455
4440.000000, 77.569, -26.8117
4500.000000, 77.548, -25.4886
4550.000000, 77.535, -24.4460
4620.000000, 77.520, -23.0394
4680.000000, 77.509, -21.8816
4750.000000, 77.494, -20.5934
4820.000000, 77.480, -19.3774
4870.000000, 77.469, -18.5425
4940.000000, 77.447, -17.4003
5000.000000, 77.425, -16.4314
5080.000000, 77.391, -15.1325
5150.000000, 77.354, -13.9801
5220.000000, 77.314, -12.7863
5300.000000, 77.269, -11.3270
5380.000000, 77.230, -9.7663
5450.000000, 77.203, -8.3225
5520.000000, 77.195, -6.8272
5600.000000, 77.213, -5.0983
5700.000000, 77.273, -2.9942
5800.000000, 77.366, -1.0686
5900.000000, 77.482, 0.6288
6000.000000, 77.606, 2.1431
6080.000000, 77.704, 3.2584
6150.000000, 77.787, 4.2013
6220.000000, 77.874, 5.1330
6300.000000, 77.985, 6.1897
6400.000000, 78.147, 7.5133
6500.000000, 78.352, 8.8272
6600.000000, 78.619, 10.0527
6700.000000, 78.958, 11.0643
6800.000000, 79.383, 11.6672
6900.000000, 79.903, 11.5486
7000.000000, 80.502, 10.3822
7100.000000, 81.141, 7.7950
7200.000000, 81.746, 3.3851
7300.000000, 82.181, -3.0830
7400.000000, 82.250, -11.0099
7500.000000, 81.920, -18.8418
7620.000000, 81.151, -27.4061
7750.000000, 79.877, -34.9413
7880.000000, 78.302, -39.4909
8000.000000, 76.770, -41.0215
8120.000000, 75.242, -40.2362
8250.000000, 73.661, -36.0088
8380.000000, 72.676, -27.7942
8500.000000, 72.557, -22.6461
8620.000000, 72.441, -22.4341
8750.000000, 71.709, -22.7160
8850.000000, 71.011, -20.9406
9000.000000, 70.128, -16.5675
9120.000000, 69.593, -12.6945
9250.000000, 69.151, -8.5217
9380.000000, 68.814, -4.6304
9500.000000, 68.559, -1.4889
9620.000000, 68.306, 1.1768
9750.000000, 67.965, 3.7230
9880.000000, 67.524, 6.7349
10000.000000, 67.098, 10.5491
10150.000000, 66.703, 16.7308
10300.000000, 66.593, 23.7063
10440.000000, 66.772, 29.8588
10600.000000, 67.194, 35.4214
10750.000000, 67.691, 38.9483
10900.000000, 68.206, 41.0508
11060.000000, 68.695, 41.9224
11200.000000, 69.013, 41.7474
11380.000000, 69.223, 40.8214
11500.000000, 69.238, 40.1686
11720.000000, 69.050, 39.8728
11800.000000, 68.940, 40.1428
12060.000000, 68.582, 42.4133
12200.000000, 68.420, 44.3731
12410.000000, 68.248, 48.5633
12500.000000, 68.249, 50.9173
12650.000000, 68.425, 55.1230
12800.000000, 68.802, 58.9775
13150.000000, 70.182, 65.3865
13200.000000, 70.427, 65.9928
13400.000000, 71.527, 67.5187
13600.000000, 72.827, 67.1612
13800.000000, 74.281, 64.1202
14000.000000, 75.747, 57.5637
14300.000000, 77.395, 40.7176
14500.000000, 77.716, 26.2459
14750.000000, 77.058, 8.4875
15000.000000, 75.571, -5.4969
15250.000000, 73.698, -15.1455
15500.000000, 71.572, -19.7588
15750.000000, 69.719, -18.3056
16000.000000, 68.614, -15.4577
16250.000000, 67.900, -13.6217
16500.000000, 67.340, -12.3213
16750.000000, 66.884, -11.2739
17000.000000, 66.481, -10.6307
17250.000000, 66.035, -10.5350
17500.000000, 65.380, -10.3683
17750.000000, 64.548, -6.3665
18000.000000, 65.008, 5.3316
18250.000000, 67.032, 5.6593
18500.000000, 67.765, -9.1265
18750.000000, 66.801, -25.2270
19000.000000, 64.871, -38.3837
19250.000000, 62.337, -48.9221
19500.000000, 59.304, -56.9901
19750.000000, 56.014, -62.4525
