* Measurement data measured by REW V5.31.3
* Source: Input device not selected, no input selected, L, volume: no control
* Format: 256k Log Swept Sine, 1 sweep at -11.0 dBFS with no timing reference
* Dated: Jul 19, 2025 12:04:45 AM
* REW Settings:
*  C-weighting compensation: Off
*  Target level: 75.0 dB
* Note: ; 
* Measurement: Pure (BGVP Foam) L
* Smoothing: 1/24 octave
* Frequency Step: 1/48 octave
* Start Frequency: 20.300 Hz
*
* Freq(Hz), SPL(dB), Phase(degrees)
20.299999, 81.641, -177.5665
20.600000, 81.621, -177.8262
20.900000, 81.594, -178.1426
21.200001, 81.566, -178.4970
21.400000, 81.550, -178.7511
21.799999, 81.524, -179.2757
22.000000, 81.513, -179.5296
22.400000, 81.497, -179.9843
22.700001, 81.488, 179.7336
23.000000, 81.477, 179.4964
23.299999, 81.464, 179.2874
23.600000, 81.446, 179.0876
24.000000, 81.413, 178.8126
24.299999, 81.384, 178.5941
24.700001, 81.346, 178.2903
25.000000, 81.322, 178.0580
25.400000, 81.297, 177.7476
25.799999, 81.277, 177.4402
26.200001, 81.258, 177.1403
26.500000, 81.240, 176.9225
26.900000, 81.210, 176.6408
27.200001, 81.185, 176.4321
27.600000, 81.150, 176.1514
28.000000, 81.117, 175.8676
28.500000, 81.082, 175.5272
29.000000, 81.052, 175.2314
29.500000, 81.022, 174.9824
30.000000, 80.988, 174.7434
30.400000, 80.958, 174.5316
30.700001, 80.933, 174.3570
31.100000, 80.899, 174.1138
31.500000, 80.867, 173.8821
32.000000, 80.834, 173.6401
32.500000, 80.806, 173.4544
33.000000, 80.778, 173.2851
33.500000, 80.746, 173.0800
34.000000, 80.708, 172.8203
34.500000, 80.667, 172.5409
35.000000, 80.629, 172.2987
35.500000, 80.599, 172.1216
36.000000, 80.573, 171.9880
36.500000, 80.543, 171.8571
37.000000, 80.503, 171.7099
37.500000, 80.458, 171.5555
38.200001, 80.403, 171.3438
38.700001, 80.376, 171.1876
39.500000, 80.335, 170.9243
40.000000, 80.302, 170.7769
40.599998, 80.256, 170.6351
41.200001, 80.215, 170.5079
41.799999, 80.181, 170.3618
42.500000, 80.140, 170.1758
43.099998, 80.099, 170.0424
43.700001, 80.054, 169.9456
44.400002, 80.004, 169.8394
45.000000, 79.964, 169.7252
45.500000, 79.930, 169.6220
46.200001, 79.885, 169.4936
46.799999, 79.853, 169.3978
47.500000, 79.822, 169.2857
48.200001, 79.787, 169.1917
48.700001, 79.756, 169.1472
49.400002, 79.706, 169.0809
50.000000, 79.661, 168.9856
50.799999, 79.604, 168.8525
51.500000, 79.565, 168.7939
52.200001, 79.533, 168.7542
53.000000, 79.488, 168.6799
53.799999, 79.441, 168.5774
54.500000, 79.406, 168.4882
55.200001, 79.371, 168.5114
56.000000, 79.336, 168.7278
57.000000, 79.301, 168.8078
58.000000, 79.224, 168.4985
59.000000, 79.148, 168.3345
60.000000, 79.106, 168.3138
60.799999, 79.066, 168.3372
61.500000, 79.028, 168.3470
62.200001, 78.991, 168.3046
63.000000, 78.948, 168.2637
64.000000, 78.899, 168.3055
65.000000, 78.846, 168.3411
66.000000, 78.791, 168.3554
67.000000, 78.749, 168.3931
68.000000, 78.714, 168.4337
69.000000, 78.674, 168.4629
70.000000, 78.626, 168.5071
71.000000, 78.575, 168.5696
72.000000, 78.529, 168.6188
73.000000, 78.491, 168.6437
74.000000, 78.453, 168.6574
75.000000, 78.413, 168.6732
76.199997, 78.365, 168.7408
77.500000, 78.311, 168.8551
78.800003, 78.260, 168.9294
80.000000, 78.217, 169.0150
81.199997, 78.166, 169.1240
82.500000, 78.108, 169.2180
83.800003, 78.061, 169.3281
85.000000, 78.020, 169.4150
86.199997, 77.978, 169.5398
87.500000, 77.938, 169.7009
88.500000, 77.908, 169.7650
90.000000, 77.856, 169.8636
91.199997, 77.810, 169.9808
92.500000, 77.765, 170.1097
93.800003, 77.722, 170.2716
95.000000, 77.685, 170.4044
96.199997, 77.648, 170.4988
97.500000, 77.606, 170.6401
98.800003, 77.573, 170.7903
100.000000, 77.540, 170.9078
101.500000, 77.497, 171.0611
103.000000, 77.457, 171.2316
104.400002, 77.421, 171.3824
106.000000, 77.372, 171.6646
107.500000, 77.322, 171.8724
109.000000, 77.287, 171.8725
110.599998, 77.253, 172.0029
112.000000, 77.219, 172.1978
113.800003, 77.167, 172.4179
115.000000, 77.139, 172.5488
117.199997, 77.093, 172.8006
118.000000, 77.075, 172.8936
120.599998, 77.028, 173.2231
122.000000, 77.001, 173.3824
124.099998, 76.953, 173.5777
125.000000, 76.932, 173.6922
126.500000, 76.901, 173.9253
128.000000, 76.866, 174.1592
131.500000, 76.797, 174.6143
132.000000, 76.789, 174.6698
134.000000, 76.750, 174.8802
136.000000, 76.713, 175.0920
138.000000, 76.679, 175.3091
140.000000, 76.645, 175.5977
143.000000, 76.585, 175.9635
145.000000, 76.550, 176.2027
147.500000, 76.520, 176.4622
150.000000, 76.482, 176.7650
152.500000, 76.439, 177.0578
155.000000, 76.406, 177.3280
157.500000, 76.374, 177.6833
160.000000, 76.340, 178.0029
162.500000, 76.305, 178.2719
165.000000, 76.271, 178.5364
167.500000, 76.237, 178.8164
170.000000, 76.203, 179.1186
172.500000, 76.173, 179.4241
175.000000, 76.148, 179.6969
177.500000, 76.117, 179.9338
180.000000, 76.082, -179.7672
182.500000, 76.050, -179.4569
185.000000, 76.021, -179.1411
187.500000, 75.994, -178.8479
190.000000, 75.966, -178.5616
192.500000, 75.940, -178.2815
195.000000, 75.917, -178.0056
197.500000, 75.893, -177.7414
200.000000, 75.870, -177.4880
203.000000, 75.840, -177.1663
206.000000, 75.807, -176.8347
209.000000, 75.773, -176.5054
212.000000, 75.745, -176.1879
214.000000, 75.728, -175.9608
218.000000, 75.692, -175.5461
220.000000, 75.673, -175.3606
224.000000, 75.641, -174.9351
227.000000, 75.616, -174.5912
230.000000, 75.590, -174.2537
233.000000, 75.567, -173.9449
236.000000, 75.541, -173.6368
240.000000, 75.505, -173.2538
243.000000, 75.480, -172.9606
247.000000, 75.454, -172.5446
250.000000, 75.431, -172.2459
254.000000, 75.394, -171.8286
258.000000, 75.358, -171.4013
262.000000, 75.331, -171.1152
265.000000, 75.314, -170.8452
269.000000, 75.289, -170.3967
272.000000, 75.269, -170.0692
276.000000, 75.242, -169.6457
280.000000, 75.215, -169.2643
285.000000, 75.181, -168.8154
290.000000, 75.148, -168.3061
295.000000, 75.114, -167.7902
300.000000, 75.084, -167.2973
304.000000, 75.059, -166.9091
307.000000, 75.040, -166.6266
311.000000, 75.015, -166.2519
315.000000, 74.990, -165.8481
320.000000, 74.959, -165.4105
325.000000, 74.926, -164.9951
330.000000, 74.898, -164.5313
335.000000, 74.872, -164.0630
340.000000, 74.838, -163.6060
345.000000, 74.809, -163.1027
350.000000, 74.785, -162.6324
355.000000, 74.761, -162.1694
360.000000, 74.730, -161.6694
365.000000, 74.701, -161.1764
370.000000, 74.673, -160.7167
375.000000, 74.647, -160.2688
382.000000, 74.615, -159.5973
387.000000, 74.594, -159.1152
395.000000, 74.566, -158.4116
400.000000, 74.552, -157.9539
406.000000, 74.528, -157.4279
412.000000, 74.500, -156.9188
418.000000, 74.476, -156.4042
425.000000, 74.445, -155.8253
431.000000, 74.416, -155.3382
437.000000, 74.389, -154.8328
444.000000, 74.351, -154.2559
450.000000, 74.319, -153.7871
455.000000, 74.294, -153.3968
462.000000, 74.258, -152.8120
468.000000, 74.229, -152.2910
475.000000, 74.196, -151.7061
482.000000, 74.162, -151.0964
487.000000, 74.135, -150.6452
494.000000, 74.095, -150.0243
500.000000, 74.062, -149.5033
508.000000, 74.022, -148.7941
515.000000, 73.989, -148.1541
522.000000, 73.954, -147.5434
530.000000, 73.913, -146.8415
538.000000, 73.874, -146.1156
545.000000, 73.843, -145.4600
552.000000, 73.811, -144.8189
560.000000, 73.770, -144.1014
570.000000, 73.721, -143.1269
580.000000, 73.675, -142.2073
590.000000, 73.635, -141.2885
600.000000, 73.596, -140.3329
608.000000, 73.565, -139.5838
615.000000, 73.538, -138.9306
622.000000, 73.513, -138.2675
630.000000, 73.486, -137.4887
640.000000, 73.451, -136.5089
650.000000, 73.413, -135.5437
660.000000, 73.376, -134.5678
670.000000, 73.339, -133.5889
680.000000, 73.307, -132.5840
690.000000, 73.281, -131.5693
700.000000, 73.254, -130.5903
710.000000, 73.225, -129.5984
720.000000, 73.198, -128.5697
730.000000, 73.179, -127.5117
740.000000, 73.164, -126.4860
750.000000, 73.145, -125.4715
762.000000, 73.121, -124.1987
775.000000, 73.103, -122.8270
788.000000, 73.095, -121.4357
800.000000, 73.089, -120.1185
812.000000, 73.085, -118.8349
825.000000, 73.085, -117.4741
838.000000, 73.090, -116.1069
850.000000, 73.101, -114.8314
862.000000, 73.115, -113.5544
875.000000, 73.132, -112.2043
885.000000, 73.153, -111.1393
900.000000, 73.190, -109.5710
912.000000, 73.224, -108.3845
925.000000, 73.260, -107.0742
938.000000, 73.301, -105.7683
950.000000, 73.348, -104.5982
962.000000, 73.402, -103.4389
975.000000, 73.462, -102.1805
988.000000, 73.522, -100.9568
1000.000000, 73.584, -99.8734
1015.000000, 73.664, -98.5559
1030.000000, 73.748, -97.2817
1044.000000, 73.831, -96.1575
1060.000000, 73.929, -94.8972
1075.000000, 74.024, -93.7726
1090.000000, 74.119, -92.7430
1106.000000, 74.217, -91.6762
1120.000000, 74.303, -90.7680
1138.000000, 74.411, -89.6615
1150.000000, 74.482, -88.9571
1172.000000, 74.610, -87.6883
1180.000000, 74.655, -87.2422
1206.000000, 74.794, -85.9064
1220.000000, 74.865, -85.2265
1241.000000, 74.964, -84.2217
1250.000000, 75.003, -83.8069
1265.000000, 75.068, -83.1318
1280.000000, 75.133, -82.4514
1315.000000, 75.267, -80.8710
1320.000000, 75.284, -80.6543
1340.000000, 75.351, -79.7986
1360.000000, 75.413, -78.9320
1380.000000, 75.471, -78.0700
1400.000000, 75.527, -77.2054
1430.000000, 75.609, -75.8756
1450.000000, 75.661, -74.9933
1475.000000, 75.726, -73.8658
1500.000000, 75.788, -72.7077
1525.000000, 75.852, -71.5708
1550.000000, 75.921, -70.4258
1575.000000, 75.991, -69.2737
1600.000000, 76.058, -68.1246
1625.000000, 76.127, -67.0016
1650.000000, 76.197, -65.8528
1675.000000, 76.269, -64.7020
1700.000000, 76.342, -63.5642
1725.000000, 76.417, -62.4393
1750.000000, 76.495, -61.3401
1775.000000, 76.578, -60.2317
1800.000000, 76.665, -59.1301
1825.000000, 76.748, -58.0463
1850.000000, 76.837, -56.9947
1875.000000, 76.929, -55.9732
1900.000000, 77.025, -54.9552
1925.000000, 77.125, -53.9431
1950.000000, 77.225, -52.9492
1975.000000, 77.327, -51.9978
2000.000000, 77.431, -51.0679
2030.000000, 77.562, -49.9815
2060.000000, 77.694, -48.9582
2090.000000, 77.828, -47.9546
2120.000000, 77.968, -46.9972
2140.000000, 78.061, -46.3866
2180.000000, 78.251, -45.2475
2200.000000, 78.347, -44.7139
2240.000000, 78.540, -43.7129
2270.000000, 78.683, -43.0268
2300.000000, 78.830, -42.3848
2330.000000, 78.979, -41.7994
2360.000000, 79.126, -41.2963
2400.000000, 79.318, -40.7263
2430.000000, 79.459, -40.3562
2470.000000, 79.642, -39.9733
2500.000000, 79.774, -39.7594
2540.000000, 79.942, -39.5717
2580.000000, 80.100, -39.5001
2620.000000, 80.247, -39.5139
2650.000000, 80.348, -39.5780
2690.000000, 80.468, -39.7286
2720.000000, 80.548, -39.8841
2760.000000, 80.639, -40.1338
2800.000000, 80.715, -40.4311
2850.000000, 80.787, -40.8413
2900.000000, 80.831, -41.2600
2950.000000, 80.853, -41.6941
3000.000000, 80.850, -42.1381
3040.000000, 80.829, -42.4730
3070.000000, 80.802, -42.6897
3110.000000, 80.754, -42.9311
3150.000000, 80.693, -43.1184
3200.000000, 80.603, -43.2683
3250.000000, 80.500, -43.2982
3300.000000, 80.391, -43.2038
3350.000000, 80.279, -43.0175
3400.000000, 80.165, -42.7606
3450.000000, 80.048, -42.4275
3500.000000, 79.927, -42.0000
3550.000000, 79.806, -41.5006
3600.000000, 79.686, -40.9345
3650.000000, 79.566, -40.2859
3700.000000, 79.450, -39.5766
3750.000000, 79.340, -38.8036
3820.000000, 79.197, -37.6258
3870.000000, 79.100, -36.7352
3950.000000, 78.965, -35.2101
4000.000000, 78.892, -34.2393
4060.000000, 78.815, -33.1003
4120.000000, 78.747, -31.9650
4180.000000, 78.688, -30.8271
4250.000000, 78.631, -29.5338
4310.000000, 78.592, -28.4617
4370.000000, 78.559, -27.4431
4440.000000, 78.525, -26.3397
4500.000000, 78.498, -25.4516
4550.000000, 78.475, -24.7585
4620.000000, 78.441, -23.8659
4680.000000, 78.408, -23.1536
4750.000000, 78.361, -22.3861
4820.000000, 78.302, -21.6781
4870.000000, 78.252, -21.1920
4940.000000, 78.170, -20.5013
5000.000000, 78.087, -19.9064
5080.000000, 77.960, -19.0812
5150.000000, 77.832, -18.2594
5220.000000, 77.696, -17.3204
5300.000000, 77.535, -16.0905
5380.000000, 77.376, -14.6822
5450.000000, 77.247, -13.2924
5520.000000, 77.132, -11.7953
5600.000000, 77.027, -10.0023
5700.000000, 76.942, -7.7056
5800.000000, 76.900, -5.5288
5900.000000, 76.882, -3.5500
6000.000000, 76.869, -1.7117
6080.000000, 76.858, -0.3376
6150.000000, 76.845, 0.8366
6220.000000, 76.829, 2.0316
6300.000000, 76.811, 3.4393
6400.000000, 76.802, 5.2623
6500.000000, 76.825, 7.1548
6600.000000, 76.886, 9.0645
6700.000000, 76.987, 10.9140
6800.000000, 77.137, 12.6296
6900.000000, 77.337, 14.0980
7000.000000, 77.588, 15.2148
7100.000000, 77.885, 15.8507
7200.000000, 78.215, 15.8284
7300.000000, 78.535, 14.8710
7400.000000, 78.756, 13.1763
7500.000000, 78.905, 11.4626
7620.000000, 79.084, 8.6749
7750.000000, 79.090, 4.2918
7880.000000, 78.781, -0.4738
8000.000000, 78.217, -4.3788
8120.000000, 77.403, -7.0359
8250.000000, 76.313, -6.8527
8380.000000, 75.607, -2.1234
8500.000000, 75.693, 0.6548
8620.000000, 75.758, -1.2810
8750.000000, 75.167, -3.8447
8850.000000, 74.547, -3.7561
9000.000000, 73.762, -1.7043
9120.000000, 73.296, 0.5294
9250.000000, 72.921, 3.0154
9380.000000, 72.646, 5.2028
9500.000000, 72.439, 6.7185
9620.000000, 72.214, 7.7218
9750.000000, 71.868, 8.6374
9880.000000, 71.406, 10.2947
10000.000000, 70.980, 13.0752
10150.000000, 70.650, 18.0074
10300.000000, 70.680, 23.3604
10440.000000, 70.999, 27.2489
10600.000000, 71.521, 29.3380
10750.000000, 71.976, 29.1016
10900.000000, 72.274, 27.3094
11060.000000, 72.330, 24.5052
11200.000000, 72.144, 22.0668
11380.000000, 71.643, 19.9655
11500.000000, 71.221, 19.5540
11720.000000, 70.462, 20.9078
11800.000000, 70.229, 21.9420
12060.000000, 69.715, 26.1754
12200.000000, 69.568, 28.5034
12410.000000, 69.440, 32.3074
12500.000000, 69.452, 34.1822
12650.000000, 69.619, 37.1571
12800.000000, 69.939, 39.2437
13150.000000, 70.880, 40.1780
13200.000000, 71.012, 39.9256
13400.000000, 71.499, 38.0350
13600.000000, 71.883, 34.9351
13800.000000, 72.124, 30.9152
14000.000000, 72.194, 26.3622
14300.000000, 71.998, 19.4708
14500.000000, 71.717, 15.2105
14750.000000, 71.267, 10.3249
15000.000000, 70.756, 5.5957
15250.000000, 70.060, 0.7664
15500.000000, 69.031, -1.8948
15750.000000, 68.217, -0.5730
16000.000000, 67.968, 0.5927
16250.000000, 67.929, -0.0081
16500.000000, 67.926, -1.8878
16750.000000, 67.906, -4.9344
17000.000000, 67.762, -9.2015
17250.000000, 67.354, -14.4540
17500.000000, 66.515, -19.1405
17750.000000, 65.379, -19.4042
18000.000000, 65.313, -13.8919
18250.000000, 66.568, -18.6069
18500.000000, 66.574, -35.7472
18750.000000, 64.744, -53.1832
19000.000000, 61.754, -65.6211
19250.000000, 58.210, -72.8486
19500.000000, 54.461, -76.2391
19750.000000, 50.818, -77.3481
