* Measurement data measured by REW V5.31.3
* Source: Input device not selected, no input selected, L, volume: no control
* Format: 256k Log Swept Sine, 1 sweep at -11.0 dBFS with no timing reference
* Dated: Jul 19, 2025 12:09:32 AM
* REW Settings:
*  C-weighting compensation: Off
*  Target level: 75.0 dB
* Note: ; 
* Measurement: Pure (Sancai) L
* Smoothing: 1/24 octave
* Frequency Step: 1/48 octave
* Start Frequency: 20.300 Hz
*
* Freq(Hz), SPL(dB), Phase(degrees)
20.299999, 80.004, -169.3640
20.600000, 79.990, -169.6162
20.900000, 79.969, -169.8988
21.200001, 79.946, -170.1906
21.400000, 79.934, -170.3917
21.799999, 79.923, -170.8103
22.000000, 79.925, -171.0261
22.400000, 79.938, -171.4624
22.700001, 79.949, -171.7842
23.000000, 79.955, -172.0890
23.299999, 79.951, -172.3636
23.600000, 79.935, -172.5972
24.000000, 79.902, -172.8429
24.299999, 79.877, -172.9953
24.700001, 79.854, -173.2081
25.000000, 79.850, -173.4115
25.400000, 79.854, -173.7625
25.799999, 79.857, -174.1671
26.200001, 79.849, -174.5386
26.500000, 79.833, -174.7484
26.900000, 79.806, -174.9268
27.200001, 79.788, -175.0192
27.600000, 79.771, -175.1685
28.000000, 79.759, -175.4187
28.500000, 79.740, -175.8718
29.000000, 79.712, -176.3496
29.500000, 79.681, -176.7191
30.000000, 79.653, -176.9531
30.400000, 79.637, -177.0738
30.700001, 79.628, -177.1445
31.100000, 79.622, -177.2374
31.500000, 79.621, -177.3700
32.000000, 79.619, -177.6569
32.500000, 79.588, -178.0660
33.000000, 79.511, -178.4253
33.500000, 79.410, -178.5215
34.000000, 79.342, -178.3399
34.500000, 79.346, -178.1450
35.000000, 79.404, -178.2255
35.500000, 79.457, -178.6073
36.000000, 79.465, -179.0731
36.500000, 79.428, -179.4102
37.000000, 79.372, -179.5926
37.500000, 79.327, -179.7412
38.200001, 79.297, 179.9239
38.700001, 79.296, 179.6145
39.500000, 79.300, 179.2095
40.000000, 79.291, 179.0862
40.599998, 79.264, 179.0440
41.200001, 79.229, 179.0125
41.799999, 79.192, 178.9020
42.500000, 79.152, 178.6877
43.099998, 79.120, 178.5114
43.700001, 79.092, 178.3766
44.400002, 79.063, 178.2263
45.000000, 79.037, 178.0729
45.500000, 79.012, 177.9539
46.200001, 78.978, 177.8625
46.799999, 78.960, 177.8315
47.500000, 78.950, 177.7411
48.200001, 78.931, 177.5788
48.700001, 78.908, 177.4837
49.400002, 78.874, 177.4102
50.000000, 78.849, 177.3250
50.799999, 78.817, 177.1021
51.500000, 78.791, 176.8937
52.200001, 78.771, 176.7749
53.000000, 78.739, 176.7650
53.799999, 78.684, 176.8080
54.500000, 78.643, 176.7266
55.200001, 78.634, 176.4284
56.000000, 78.650, 176.0282
57.000000, 78.649, 176.0246
58.000000, 78.594, 176.3219
59.000000, 78.504, 176.2307
60.000000, 78.450, 175.9855
60.799999, 78.435, 175.9122
61.500000, 78.413, 175.9527
62.200001, 78.384, 176.0463
63.000000, 78.363, 176.0761
64.000000, 78.342, 175.9601
65.000000, 78.303, 175.8858
66.000000, 78.268, 175.8340
67.000000, 78.236, 175.7935
68.000000, 78.201, 175.7639
69.000000, 78.160, 175.7012
70.000000, 78.128, 175.7033
71.000000, 78.100, 175.7809
72.000000, 78.066, 175.8467
73.000000, 78.036, 175.8240
74.000000, 78.008, 175.8279
75.000000, 77.981, 175.8963
76.199997, 77.942, 175.8461
77.500000, 77.885, 175.7674
78.800003, 77.846, 175.8522
80.000000, 77.820, 175.9390
81.199997, 77.781, 175.9080
82.500000, 77.741, 175.7542
83.800003, 77.705, 175.7330
85.000000, 77.664, 175.8353
86.199997, 77.632, 175.9970
87.500000, 77.618, 176.1574
88.500000, 77.598, 176.1891
90.000000, 77.552, 176.2038
91.199997, 77.514, 176.3014
92.500000, 77.480, 176.4004
93.800003, 77.453, 176.4113
95.000000, 77.436, 176.4406
96.199997, 77.407, 176.5472
97.500000, 77.368, 176.7106
98.800003, 77.341, 176.9050
100.000000, 77.324, 177.0592
101.500000, 77.297, 177.1685
103.000000, 77.240, 177.3149
104.400002, 77.181, 177.4813
106.000000, 77.137, 178.0502
107.500000, 77.118, 178.2415
109.000000, 77.100, 177.8015
110.599998, 77.076, 177.6200
112.000000, 77.050, 177.5961
113.800003, 76.993, 177.9724
115.000000, 76.966, 178.1637
117.199997, 76.932, 178.2701
118.000000, 76.910, 178.3556
120.599998, 76.850, 178.5631
122.000000, 76.843, 178.5198
124.099998, 76.819, 178.6181
125.000000, 76.798, 178.6802
126.500000, 76.762, 178.8528
128.000000, 76.732, 179.0579
131.500000, 76.664, 179.4920
132.000000, 76.652, 179.5526
134.000000, 76.613, 179.7081
136.000000, 76.587, 179.8360
138.000000, 76.556, -179.9282
140.000000, 76.529, -179.6448
143.000000, 76.484, -179.4183
145.000000, 76.443, -179.2688
147.500000, 76.403, -179.0575
150.000000, 76.371, -178.8015
152.500000, 76.319, -178.5334
155.000000, 76.277, -178.2586
157.500000, 76.235, -177.9554
160.000000, 76.193, -177.6943
162.500000, 76.154, -177.3407
165.000000, 76.114, -177.0253
167.500000, 76.085, -176.7535
170.000000, 76.056, -176.4581
172.500000, 76.023, -176.1514
175.000000, 75.991, -175.8512
177.500000, 75.949, -175.4696
180.000000, 75.902, -175.0954
182.500000, 75.868, -174.7134
185.000000, 75.836, -174.2567
187.500000, 75.809, -173.8281
190.000000, 75.789, -173.4262
192.500000, 75.773, -172.9815
195.000000, 75.765, -172.4804
197.500000, 75.769, -171.9663
200.000000, 75.779, -171.4803
203.000000, 75.798, -170.9690
206.000000, 75.829, -170.5552
209.000000, 75.867, -170.2334
212.000000, 75.901, -169.9723
214.000000, 75.920, -169.8596
218.000000, 75.954, -169.7607
220.000000, 75.962, -169.7326
224.000000, 75.970, -169.7030
227.000000, 75.964, -169.7228
230.000000, 75.946, -169.6689
233.000000, 75.929, -169.5145
236.000000, 75.907, -169.3988
240.000000, 75.870, -169.2193
243.000000, 75.846, -169.0355
247.000000, 75.813, -168.7987
250.000000, 75.784, -168.6440
254.000000, 75.751, -168.4395
258.000000, 75.721, -168.2430
262.000000, 75.692, -168.0094
265.000000, 75.667, -167.7831
269.000000, 75.635, -167.4456
272.000000, 75.613, -167.1925
276.000000, 75.590, -166.8994
280.000000, 75.566, -166.6048
285.000000, 75.528, -166.2182
290.000000, 75.482, -165.8265
295.000000, 75.443, -165.4818
300.000000, 75.406, -165.0900
304.000000, 75.377, -164.7477
307.000000, 75.359, -164.4905
311.000000, 75.338, -164.1544
315.000000, 75.314, -163.8357
320.000000, 75.280, -163.4592
325.000000, 75.246, -163.0616
330.000000, 75.213, -162.6427
335.000000, 75.179, -162.2184
340.000000, 75.149, -161.8112
345.000000, 75.123, -161.4262
350.000000, 75.094, -161.0111
355.000000, 75.063, -160.6083
360.000000, 75.033, -160.2027
365.000000, 75.006, -159.7931
370.000000, 74.980, -159.4022
375.000000, 74.955, -158.9774
382.000000, 74.919, -158.3828
387.000000, 74.887, -157.9650
395.000000, 74.845, -157.3136
400.000000, 74.824, -156.9127
406.000000, 74.792, -156.4337
412.000000, 74.755, -155.9276
418.000000, 74.725, -155.4400
425.000000, 74.691, -154.8916
431.000000, 74.662, -154.4116
437.000000, 74.631, -153.9254
444.000000, 74.596, -153.3781
450.000000, 74.564, -152.8826
455.000000, 74.539, -152.4420
462.000000, 74.503, -151.8136
468.000000, 74.471, -151.3158
475.000000, 74.439, -150.7319
482.000000, 74.412, -150.1325
487.000000, 74.394, -149.7158
494.000000, 74.368, -149.1526
500.000000, 74.346, -148.6782
508.000000, 74.312, -148.0769
515.000000, 74.276, -147.5418
522.000000, 74.240, -146.9775
530.000000, 74.198, -146.3170
538.000000, 74.156, -145.6309
545.000000, 74.121, -145.0444
552.000000, 74.088, -144.4890
560.000000, 74.050, -143.7862
570.000000, 74.001, -142.8438
580.000000, 73.956, -142.0048
590.000000, 73.913, -141.1273
600.000000, 73.866, -140.2137
608.000000, 73.832, -139.4781
615.000000, 73.802, -138.8368
622.000000, 73.772, -138.1902
630.000000, 73.740, -137.4497
640.000000, 73.705, -136.5153
650.000000, 73.669, -135.5561
660.000000, 73.631, -134.5936
670.000000, 73.595, -133.6612
680.000000, 73.565, -132.7204
690.000000, 73.539, -131.7251
700.000000, 73.514, -130.7594
710.000000, 73.490, -129.7840
720.000000, 73.461, -128.8197
730.000000, 73.429, -127.8475
740.000000, 73.402, -126.8565
750.000000, 73.380, -125.8514
762.000000, 73.360, -124.6493
775.000000, 73.341, -123.3527
788.000000, 73.326, -122.0170
800.000000, 73.317, -120.7588
812.000000, 73.315, -119.5081
825.000000, 73.314, -118.1646
838.000000, 73.317, -116.7777
850.000000, 73.324, -115.5293
862.000000, 73.338, -114.2928
875.000000, 73.359, -112.9567
885.000000, 73.377, -111.9004
900.000000, 73.409, -110.3747
912.000000, 73.439, -109.1755
925.000000, 73.480, -107.8632
938.000000, 73.525, -106.5576
950.000000, 73.569, -105.4083
962.000000, 73.618, -104.2702
975.000000, 73.677, -103.0504
988.000000, 73.742, -101.8609
1000.000000, 73.805, -100.8126
1015.000000, 73.891, -99.5184
1030.000000, 73.977, -98.2748
1044.000000, 74.057, -97.1611
1060.000000, 74.154, -95.9239
1075.000000, 74.247, -94.8674
1090.000000, 74.341, -93.8187
1106.000000, 74.442, -92.7184
1120.000000, 74.530, -91.8244
1138.000000, 74.643, -90.7516
1150.000000, 74.716, -90.0830
1172.000000, 74.842, -88.9165
1180.000000, 74.886, -88.5108
1206.000000, 75.024, -87.2181
1220.000000, 75.094, -86.5659
1241.000000, 75.194, -85.6072
1250.000000, 75.236, -85.2029
1265.000000, 75.305, -84.5564
1280.000000, 75.370, -83.9310
1315.000000, 75.504, -82.4659
1320.000000, 75.522, -82.2647
1340.000000, 75.592, -81.4682
1360.000000, 75.655, -80.6478
1380.000000, 75.713, -79.8289
1400.000000, 75.772, -79.0101
1430.000000, 75.854, -77.7915
1450.000000, 75.904, -76.9735
1475.000000, 75.965, -75.9210
1500.000000, 76.029, -74.8860
1525.000000, 76.091, -73.8602
1550.000000, 76.151, -72.8018
1575.000000, 76.214, -71.7174
1600.000000, 76.276, -70.6349
1625.000000, 76.338, -69.5827
1650.000000, 76.402, -68.5180
1675.000000, 76.469, -67.4494
1700.000000, 76.537, -66.4022
1725.000000, 76.607, -65.3500
1750.000000, 76.677, -64.2847
1775.000000, 76.749, -63.2302
1800.000000, 76.824, -62.1849
1825.000000, 76.901, -61.1632
1850.000000, 76.983, -60.1561
1875.000000, 77.068, -59.1669
1900.000000, 77.157, -58.1943
1925.000000, 77.246, -57.2379
1950.000000, 77.335, -56.2989
1975.000000, 77.427, -55.3726
2000.000000, 77.524, -54.4659
2030.000000, 77.646, -53.4125
2060.000000, 77.772, -52.3937
2090.000000, 77.900, -51.4346
2120.000000, 78.028, -50.5163
2140.000000, 78.116, -49.9230
2180.000000, 78.294, -48.8156
2200.000000, 78.384, -48.2989
2240.000000, 78.567, -47.3163
2270.000000, 78.708, -46.6337
2300.000000, 78.848, -46.0108
2330.000000, 78.987, -45.4472
2360.000000, 79.126, -44.9527
2400.000000, 79.308, -44.3853
2430.000000, 79.443, -44.0331
2470.000000, 79.622, -43.6628
2500.000000, 79.751, -43.4582
2540.000000, 79.915, -43.2764
2580.000000, 80.069, -43.1933
2620.000000, 80.214, -43.2299
2650.000000, 80.312, -43.3084
2690.000000, 80.430, -43.4771
2720.000000, 80.511, -43.6483
2760.000000, 80.605, -43.9269
2800.000000, 80.685, -44.2706
2850.000000, 80.762, -44.7556
2900.000000, 80.811, -45.2777
2950.000000, 80.837, -45.8408
3000.000000, 80.835, -46.4364
3040.000000, 80.813, -46.9085
3070.000000, 80.785, -47.2481
3110.000000, 80.732, -47.6634
3150.000000, 80.662, -48.0232
3200.000000, 80.554, -48.3599
3250.000000, 80.429, -48.5538
3300.000000, 80.296, -48.6351
3350.000000, 80.158, -48.6205
3400.000000, 80.011, -48.4979
3450.000000, 79.859, -48.2868
3500.000000, 79.703, -47.9973
3550.000000, 79.544, -47.6043
3600.000000, 79.384, -47.1017
3650.000000, 79.224, -46.5121
3700.000000, 79.067, -45.8178
3750.000000, 78.918, -45.0381
3820.000000, 78.719, -43.8261
3870.000000, 78.586, -42.9054
3950.000000, 78.389, -41.3422
4000.000000, 78.274, -40.3208
4060.000000, 78.151, -39.0534
4120.000000, 78.036, -37.7630
4180.000000, 77.931, -36.4708
4250.000000, 77.820, -34.9476
4310.000000, 77.733, -33.6257
4370.000000, 77.658, -32.3383
4440.000000, 77.584, -30.8627
4500.000000, 77.526, -29.6327
4550.000000, 77.484, -28.6381
4620.000000, 77.429, -27.2891
4680.000000, 77.384, -26.1922
4750.000000, 77.332, -25.0129
4820.000000, 77.278, -23.8807
4870.000000, 77.233, -23.0769
4940.000000, 77.164, -21.9722
5000.000000, 77.101, -21.0410
5080.000000, 77.005, -19.7984
5150.000000, 76.914, -18.6687
5220.000000, 76.817, -17.4672
5300.000000, 76.706, -15.9814
5380.000000, 76.597, -14.3882
5450.000000, 76.509, -12.9069
5520.000000, 76.434, -11.3458
5600.000000, 76.371, -9.4996
5700.000000, 76.329, -7.2234
5800.000000, 76.314, -5.0923
5900.000000, 76.319, -3.1301
6000.000000, 76.324, -1.3490
6080.000000, 76.319, -0.0017
6150.000000, 76.307, 1.2111
6220.000000, 76.290, 2.4751
6300.000000, 76.274, 3.9736
6400.000000, 76.266, 5.9845
6500.000000, 76.287, 8.1439
6600.000000, 76.346, 10.4258
6700.000000, 76.457, 12.7249
6800.000000, 76.632, 14.9563
6900.000000, 76.874, 17.0546
7000.000000, 77.190, 18.8883
7100.000000, 77.585, 20.3602
7200.000000, 78.060, 21.1914
7300.000000, 78.575, 21.0501
7400.000000, 79.050, 20.0678
7500.000000, 79.551, 18.8072
7620.000000, 80.251, 15.5469
7750.000000, 80.826, 8.9772
7880.000000, 80.953, 0.3225
8000.000000, 80.549, -8.0352
8120.000000, 79.633, -15.0354
8250.000000, 78.219, -18.5896
8380.000000, 77.093, -16.5027
8500.000000, 76.794, -15.3306
8620.000000, 76.528, -18.3256
8750.000000, 75.584, -21.8146
8850.000000, 74.675, -22.1488
9000.000000, 73.466, -20.2055
9120.000000, 72.684, -17.7744
9250.000000, 71.987, -14.8999
9380.000000, 71.413, -12.0771
9500.000000, 70.950, -9.7114
9620.000000, 70.505, -7.6911
9750.000000, 69.973, -5.6312
9880.000000, 69.361, -3.0171
10000.000000, 68.797, 0.4283
10150.000000, 68.240, 6.1942
10300.000000, 67.976, 12.7389
10440.000000, 68.004, 18.3644
10600.000000, 68.250, 23.4773
10750.000000, 68.583, 26.7731
10900.000000, 68.933, 28.7314
11060.000000, 69.256, 29.5220
11200.000000, 69.447, 29.3455
11380.000000, 69.509, 28.4037
11500.000000, 69.423, 27.7044
11720.000000, 69.050, 27.1942
11800.000000, 68.870, 27.3815
12060.000000, 68.242, 29.3025
12200.000000, 67.909, 31.0596
12410.000000, 67.439, 35.0979
12500.000000, 67.299, 37.4750
12650.000000, 67.223, 41.8164
12800.000000, 67.328, 45.8646
13150.000000, 67.951, 53.4755
13200.000000, 68.073, 54.3878
13400.000000, 68.639, 57.6390
13600.000000, 69.338, 60.1062
13800.000000, 70.167, 61.6901
14000.000000, 71.127, 62.1547
14300.000000, 72.810, 60.0474
14500.000000, 74.065, 55.9459
14750.000000, 75.589, 46.5326
15000.000000, 76.650, 31.9801
15250.000000, 76.706, 14.2882
15500.000000, 75.517, -1.2202
15750.000000, 73.785, -10.1655
16000.000000, 72.299, -15.0272
16250.000000, 71.046, -18.2081
16500.000000, 69.933, -20.1139
16750.000000, 68.946, -21.0459
17000.000000, 68.039, -21.3633
17250.000000, 67.142, -21.3526
17500.000000, 66.126, -20.4054
17750.000000, 65.162, -14.4887
18000.000000, 65.897, -2.3191
18250.000000, 67.899, -4.9061
18500.000000, 68.312, -21.0001
18750.000000, 67.034, -36.8649
19000.000000, 64.891, -49.1702
19250.000000, 62.282, -58.9567
19500.000000, 59.281, -66.7636
19750.000000, 56.067, -72.5788
