* Measurement data measured by REW V5.31.3
* Source: Input device not selected, no input selected, L, volume: no control
* Format: 256k Log Swept Sine, 1 sweep at -11.0 dBFS with no timing reference
* Dated: Jul 19, 2025 12:10:54 AM
* REW Settings:
*  C-weighting compensation: Off
*  Target level: 75.0 dB
* Note: ; 
* Measurement: Pure (Velvet) L
* Smoothing: 1/24 octave
* Frequency Step: 1/48 octave
* Start Frequency: 20.300 Hz
*
* Freq(Hz), SPL(dB), Phase(degrees)
20.299999, 82.161, -174.5865
20.600000, 82.037, -174.8294
20.900000, 81.916, -175.0345
21.200001, 81.849, -175.1702
21.400000, 81.843, -175.2442
21.799999, 81.910, -175.4610
22.000000, 81.965, -175.6480
22.400000, 82.058, -176.2050
22.700001, 82.075, -176.7130
23.000000, 82.032, -177.1793
23.299999, 81.943, -177.4985
23.600000, 81.845, -177.6302
24.000000, 81.764, -177.6409
24.299999, 81.771, -177.7289
24.700001, 81.848, -178.2282
25.000000, 81.908, -178.9193
25.400000, 81.921, 179.9456
25.799999, 81.825, 178.9352
26.200001, 81.656, 178.3263
26.500000, 81.529, 178.1252
26.900000, 81.420, 177.9694
27.200001, 81.396, 177.7727
27.600000, 81.416, 177.3498
28.000000, 81.445, 176.9418
28.500000, 81.444, 176.8618
29.000000, 81.409, 177.2397
29.500000, 81.370, 177.3937
30.000000, 81.335, 176.6541
30.400000, 81.308, 175.4634
30.700001, 81.290, 174.4735
31.100000, 81.266, 173.3903
31.500000, 81.234, 172.8701
32.000000, 81.156, 173.0376
32.500000, 81.026, 173.6455
33.000000, 80.889, 173.9377
33.500000, 80.828, 173.3892
34.000000, 80.899, 172.2002
34.500000, 81.079, 171.2907
35.000000, 81.292, 171.5045
35.500000, 81.468, 172.8234
36.000000, 81.555, 174.3525
36.500000, 81.504, 175.0426
37.000000, 81.296, 174.5246
37.500000, 80.984, 173.3513
38.200001, 80.605, 172.4832
38.700001, 80.528, 172.9213
39.500000, 80.719, 173.6674
40.000000, 80.883, 173.3532
40.599998, 81.040, 172.8179
41.200001, 81.175, 173.1218
41.799999, 81.260, 174.1823
42.500000, 81.112, 175.0302
43.099998, 80.705, 174.7102
43.700001, 80.255, 173.5657
44.400002, 80.088, 171.9167
45.000000, 80.218, 170.9617
45.500000, 80.285, 170.8919
46.200001, 80.139, 171.8220
46.799999, 79.903, 172.5910
47.500000, 79.728, 172.2995
48.200001, 79.738, 171.6990
48.700001, 79.832, 172.0167
49.400002, 79.993, 173.0333
50.000000, 80.045, 173.2274
50.799999, 79.985, 172.5570
51.500000, 80.057, 172.5302
52.200001, 80.311, 173.1291
53.000000, 80.491, 173.4557
53.799999, 80.400, 172.9359
54.500000, 80.279, 171.7791
55.200001, 80.212, 170.4082
56.000000, 80.105, 169.5953
57.000000, 79.791, 170.1765
58.000000, 79.464, 171.6089
59.000000, 79.483, 172.1904
60.000000, 79.630, 170.6556
60.799999, 79.592, 169.3297
61.500000, 79.492, 169.0453
62.200001, 79.404, 169.3882
63.000000, 79.354, 169.8430
64.000000, 79.394, 169.8439
65.000000, 79.472, 169.6554
66.000000, 79.525, 170.0975
67.000000, 79.522, 170.3453
68.000000, 79.410, 170.1600
69.000000, 79.319, 169.7700
70.000000, 79.306, 169.2971
71.000000, 79.362, 169.4423
72.000000, 79.408, 169.9471
73.000000, 79.360, 170.3470
74.000000, 79.236, 170.3787
75.000000, 79.078, 170.3613
76.199997, 79.009, 170.4500
77.500000, 79.054, 170.6787
78.800003, 79.061, 171.2251
80.000000, 78.995, 171.2213
81.199997, 78.909, 171.0826
82.500000, 78.903, 171.4036
83.800003, 78.949, 171.7527
85.000000, 78.907, 171.8678
86.199997, 78.793, 171.5685
87.500000, 78.702, 171.3556
88.500000, 78.675, 171.2864
90.000000, 78.639, 171.0294
91.199997, 78.582, 171.0882
92.500000, 78.523, 171.4084
93.800003, 78.488, 171.6733
95.000000, 78.481, 172.0121
96.199997, 78.472, 172.1899
97.500000, 78.444, 172.3145
98.800003, 78.397, 172.3696
100.000000, 78.351, 172.3452
101.500000, 78.309, 172.3956
103.000000, 78.260, 172.6110
104.400002, 78.236, 172.7803
106.000000, 78.194, 173.0820
107.500000, 78.141, 173.4669
109.000000, 78.099, 173.4858
110.599998, 78.038, 173.6098
112.000000, 77.986, 173.6906
113.800003, 77.940, 173.7716
115.000000, 77.934, 173.8298
117.199997, 77.942, 174.1586
118.000000, 77.942, 174.3189
120.599998, 77.893, 174.5799
122.000000, 77.843, 174.5521
124.099998, 77.788, 174.7633
125.000000, 77.765, 174.8947
126.500000, 77.728, 175.0443
128.000000, 77.705, 175.1530
131.500000, 77.667, 175.3711
132.000000, 77.659, 175.4532
134.000000, 77.603, 175.8206
136.000000, 77.557, 176.1484
138.000000, 77.523, 176.3605
140.000000, 77.489, 176.5929
143.000000, 77.451, 177.1989
145.000000, 77.427, 177.3680
147.500000, 77.424, 177.5806
150.000000, 77.379, 177.7937
152.500000, 77.328, 177.9142
155.000000, 77.283, 178.2367
157.500000, 77.258, 178.5957
160.000000, 77.219, 178.8731
162.500000, 77.180, 179.1581
165.000000, 77.151, 179.4617
167.500000, 77.118, 179.6490
170.000000, 77.077, 179.8406
172.500000, 77.036, -179.8584
175.000000, 76.997, -179.5188
177.500000, 76.965, -179.1701
180.000000, 76.940, -179.0193
182.500000, 76.921, -178.8764
185.000000, 76.900, -178.6387
187.500000, 76.876, -178.3860
190.000000, 76.850, -178.1004
192.500000, 76.820, -177.8015
195.000000, 76.793, -177.5683
197.500000, 76.769, -177.3385
200.000000, 76.739, -177.0666
203.000000, 76.701, -176.7650
206.000000, 76.669, -176.4721
209.000000, 76.646, -176.1421
212.000000, 76.623, -175.8640
214.000000, 76.606, -175.6694
218.000000, 76.571, -175.2423
220.000000, 76.556, -175.0128
224.000000, 76.524, -174.5518
227.000000, 76.496, -174.2332
230.000000, 76.474, -173.9370
233.000000, 76.455, -173.6868
236.000000, 76.431, -173.4482
240.000000, 76.398, -173.0351
243.000000, 76.371, -172.6754
247.000000, 76.337, -172.2450
250.000000, 76.314, -171.9541
254.000000, 76.286, -171.5293
258.000000, 76.266, -171.1693
262.000000, 76.251, -170.8067
265.000000, 76.236, -170.5107
269.000000, 76.212, -170.0900
272.000000, 76.199, -169.7810
276.000000, 76.179, -169.4067
280.000000, 76.152, -169.0696
285.000000, 76.121, -168.6162
290.000000, 76.096, -168.1676
295.000000, 76.069, -167.7077
300.000000, 76.041, -167.2698
304.000000, 76.018, -166.9384
307.000000, 76.001, -166.6826
311.000000, 75.978, -166.3284
315.000000, 75.957, -165.9993
320.000000, 75.936, -165.6169
325.000000, 75.912, -165.2355
330.000000, 75.883, -164.8467
335.000000, 75.854, -164.3952
340.000000, 75.825, -163.8962
345.000000, 75.793, -163.4499
350.000000, 75.758, -163.0438
355.000000, 75.725, -162.6443
360.000000, 75.698, -162.2178
365.000000, 75.678, -161.8115
370.000000, 75.657, -161.4085
375.000000, 75.632, -161.0104
382.000000, 75.592, -160.4049
387.000000, 75.564, -159.9813
395.000000, 75.522, -159.3083
400.000000, 75.494, -158.8695
406.000000, 75.465, -158.3937
412.000000, 75.439, -157.9149
418.000000, 75.415, -157.4160
425.000000, 75.378, -156.8348
431.000000, 75.342, -156.3227
437.000000, 75.309, -155.8161
444.000000, 75.277, -155.2540
450.000000, 75.249, -154.8020
455.000000, 75.226, -154.4091
462.000000, 75.195, -153.8726
468.000000, 75.169, -153.4061
475.000000, 75.135, -152.8348
482.000000, 75.096, -152.2595
487.000000, 75.067, -151.8279
494.000000, 75.026, -151.2177
500.000000, 74.990, -150.7087
508.000000, 74.946, -150.0349
515.000000, 74.913, -149.4475
522.000000, 74.885, -148.8453
530.000000, 74.848, -148.1646
538.000000, 74.804, -147.4329
545.000000, 74.768, -146.7817
552.000000, 74.736, -146.1789
560.000000, 74.701, -145.5095
570.000000, 74.662, -144.6373
580.000000, 74.621, -143.7640
590.000000, 74.574, -142.8598
600.000000, 74.527, -141.9219
608.000000, 74.493, -141.2014
615.000000, 74.462, -140.5725
622.000000, 74.430, -139.9268
630.000000, 74.397, -139.1786
640.000000, 74.358, -138.2149
650.000000, 74.317, -137.2854
660.000000, 74.276, -136.3396
670.000000, 74.239, -135.3565
680.000000, 74.199, -134.3859
690.000000, 74.158, -133.4164
700.000000, 74.126, -132.4232
710.000000, 74.102, -131.4281
720.000000, 74.076, -130.4218
730.000000, 74.055, -129.4028
740.000000, 74.037, -128.3825
750.000000, 74.016, -127.3726
762.000000, 73.991, -126.1378
775.000000, 73.970, -124.7567
788.000000, 73.959, -123.3831
800.000000, 73.952, -122.1446
812.000000, 73.947, -120.8832
825.000000, 73.946, -119.4863
838.000000, 73.947, -118.1102
850.000000, 73.955, -116.8407
862.000000, 73.970, -115.5896
875.000000, 73.991, -114.2213
885.000000, 74.010, -113.1635
900.000000, 74.046, -111.5609
912.000000, 74.084, -110.3084
925.000000, 74.132, -108.9898
938.000000, 74.183, -107.6875
950.000000, 74.233, -106.5053
962.000000, 74.283, -105.3507
975.000000, 74.341, -104.1129
988.000000, 74.406, -102.9133
1000.000000, 74.468, -101.8535
1015.000000, 74.553, -100.5307
1030.000000, 74.645, -99.2602
1044.000000, 74.738, -98.1388
1060.000000, 74.855, -96.9033
1075.000000, 74.962, -95.8131
1090.000000, 75.060, -94.7763
1106.000000, 75.161, -93.7189
1120.000000, 75.251, -92.8438
1138.000000, 75.363, -91.7744
1150.000000, 75.436, -91.0899
1172.000000, 75.572, -89.9169
1180.000000, 75.619, -89.5139
1206.000000, 75.770, -88.2819
1220.000000, 75.850, -87.6468
1241.000000, 75.961, -86.7296
1250.000000, 76.005, -86.3446
1265.000000, 76.077, -85.7233
1280.000000, 76.143, -85.1305
1315.000000, 76.287, -83.7399
1320.000000, 76.306, -83.5505
1340.000000, 76.382, -82.8176
1360.000000, 76.456, -82.0605
1380.000000, 76.523, -81.2999
1400.000000, 76.586, -80.5668
1430.000000, 76.668, -79.4612
1450.000000, 76.720, -78.6913
1475.000000, 76.784, -77.7249
1500.000000, 76.846, -76.7510
1525.000000, 76.912, -75.7685
1550.000000, 76.978, -74.7999
1575.000000, 77.044, -73.8044
1600.000000, 77.104, -72.8036
1625.000000, 77.160, -71.7934
1650.000000, 77.221, -70.7864
1675.000000, 77.289, -69.7953
1700.000000, 77.361, -68.8042
1725.000000, 77.435, -67.8099
1750.000000, 77.502, -66.8026
1775.000000, 77.572, -65.8141
1800.000000, 77.643, -64.8497
1825.000000, 77.718, -63.8901
1850.000000, 77.796, -62.9327
1875.000000, 77.876, -62.0041
1900.000000, 77.957, -61.0895
1925.000000, 78.038, -60.1789
1950.000000, 78.121, -59.2806
1975.000000, 78.208, -58.4025
2000.000000, 78.300, -57.5504
2030.000000, 78.417, -56.5770
2060.000000, 78.545, -55.6333
2090.000000, 78.673, -54.7314
2120.000000, 78.798, -53.8733
2140.000000, 78.878, -53.3135
2180.000000, 79.042, -52.2631
2200.000000, 79.126, -51.7621
2240.000000, 79.301, -50.8518
2270.000000, 79.438, -50.2412
2300.000000, 79.576, -49.6873
2330.000000, 79.716, -49.1822
2360.000000, 79.854, -48.7282
2400.000000, 80.034, -48.2318
2430.000000, 80.169, -47.9327
2470.000000, 80.343, -47.6449
2500.000000, 80.466, -47.4963
2540.000000, 80.622, -47.3748
2580.000000, 80.772, -47.3747
2620.000000, 80.913, -47.4788
2650.000000, 81.010, -47.6069
2690.000000, 81.125, -47.8486
2720.000000, 81.201, -48.0855
2760.000000, 81.292, -48.4586
2800.000000, 81.365, -48.8889
2850.000000, 81.430, -49.4779
2900.000000, 81.471, -50.1343
2950.000000, 81.488, -50.8330
3000.000000, 81.478, -51.5461
3040.000000, 81.448, -52.1197
3070.000000, 81.414, -52.5401
3110.000000, 81.351, -53.0480
3150.000000, 81.272, -53.5030
3200.000000, 81.151, -53.9585
3250.000000, 81.011, -54.2785
3300.000000, 80.860, -54.4759
3350.000000, 80.701, -54.5548
3400.000000, 80.534, -54.5487
3450.000000, 80.363, -54.4720
3500.000000, 80.189, -54.2951
3550.000000, 80.011, -54.0073
3600.000000, 79.827, -53.6236
3650.000000, 79.644, -53.1381
3700.000000, 79.464, -52.5508
3750.000000, 79.288, -51.8467
3820.000000, 79.054, -50.7164
3870.000000, 78.898, -49.8200
3950.000000, 78.667, -48.2748
4000.000000, 78.538, -47.3061
4060.000000, 78.392, -46.1409
4120.000000, 78.256, -45.0015
4180.000000, 78.133, -43.8377
4250.000000, 78.006, -42.4690
4310.000000, 77.910, -41.3258
4370.000000, 77.814, -40.2085
4440.000000, 77.697, -38.9043
4500.000000, 77.603, -37.8335
4550.000000, 77.526, -36.9618
4620.000000, 77.415, -35.7773
4680.000000, 77.320, -34.8038
4750.000000, 77.209, -33.7084
4820.000000, 77.101, -32.6436
4870.000000, 77.023, -31.9057
4940.000000, 76.906, -30.8806
5000.000000, 76.799, -29.9883
5080.000000, 76.646, -28.7894
5150.000000, 76.502, -27.7197
5220.000000, 76.352, -26.5844
5300.000000, 76.176, -25.2217
5380.000000, 75.997, -23.7629
5450.000000, 75.842, -22.3926
5520.000000, 75.691, -20.9535
5600.000000, 75.531, -19.2448
5700.000000, 75.358, -17.1147
5800.000000, 75.203, -15.0266
5900.000000, 75.053, -13.0139
6000.000000, 74.892, -11.0826
6080.000000, 74.748, -9.5317
6150.000000, 74.616, -8.1484
6220.000000, 74.476, -6.7069
6300.000000, 74.309, -4.9321
6400.000000, 74.099, -2.4840
6500.000000, 73.896, 0.2037
6600.000000, 73.724, 3.0734
6700.000000, 73.583, 6.1265
6800.000000, 73.477, 9.3384
6900.000000, 73.411, 12.6703
7000.000000, 73.394, 16.0893
7100.000000, 73.434, 19.5468
7200.000000, 73.527, 22.9426
7300.000000, 73.655, 25.9936
7400.000000, 73.753, 28.9674
7500.000000, 73.895, 32.7455
7620.000000, 74.279, 37.2793
7750.000000, 74.819, 41.2249
7880.000000, 75.433, 44.5785
8000.000000, 76.080, 47.1603
8120.000000, 76.778, 49.3295
8250.000000, 77.713, 52.3193
8380.000000, 79.419, 55.2231
8500.000000, 81.481, 51.6939
8620.000000, 83.035, 40.8183
8750.000000, 83.602, 25.9394
8850.000000, 83.451, 15.0523
9000.000000, 82.531, 1.1521
9120.000000, 81.397, -6.9703
9250.000000, 80.026, -12.6321
9380.000000, 78.696, -15.7238
9500.000000, 77.572, -17.0838
9620.000000, 76.541, -17.5977
9750.000000, 75.475, -17.4546
9880.000000, 74.429, -16.3198
10000.000000, 73.517, -14.1207
10150.000000, 72.552, -9.9330
10300.000000, 71.881, -4.7585
10440.000000, 71.541, -0.0143
10600.000000, 71.414, 4.4339
10750.000000, 71.427, 7.4752
10900.000000, 71.491, 9.4104
11060.000000, 71.561, 10.3343
11200.000000, 71.578, 10.2799
11380.000000, 71.469, 9.3394
11500.000000, 71.286, 8.4612
11720.000000, 70.740, 7.1943
11800.000000, 70.490, 6.9966
12060.000000, 69.592, 7.5543
12200.000000, 69.073, 8.6296
12410.000000, 68.283, 11.7166
12500.000000, 67.989, 13.7292
12650.000000, 67.639, 17.5304
12800.000000, 67.453, 21.2429
13150.000000, 67.360, 28.6848
13200.000000, 67.372, 29.6311
13400.000000, 67.478, 33.1634
13600.000000, 67.668, 36.2871
13800.000000, 67.940, 38.9991
14000.000000, 68.293, 41.2549
14300.000000, 68.987, 43.6259
14500.000000, 69.580, 44.3801
14750.000000, 70.463, 43.9726
15000.000000, 71.451, 41.2175
15250.000000, 72.295, 35.5251
15500.000000, 72.785, 28.8155
15750.000000, 73.312, 22.2487
16000.000000, 73.828, 12.8095
16250.000000, 73.806, 1.0300
16500.000000, 73.120, -10.2792
16750.000000, 71.938, -19.1752
17000.000000, 70.488, -25.0590
17250.000000, 68.914, -27.9890
17500.000000, 67.253, -27.7008
17750.000000, 65.737, -21.4446
18000.000000, 65.896, -7.5381
18250.000000, 67.752, -6.8912
18500.000000, 68.209, -21.6687
18750.000000, 66.801, -36.6162
19000.000000, 64.431, -46.5300
19250.000000, 61.746, -52.4452
19500.000000, 58.971, -56.2568
19750.000000, 56.253, -59.3038
