* Measurement data measured by REW V5.31.3
* Source: Input device not selected, no input selected, L, volume: no control
* Format: 256k Log Swept Sine, 1 sweep at -11.0 dBFS with no timing reference
* Dated: Jul 19, 2025 12:02:02 AM
* REW Settings:
*  C-weighting compensation: Off
*  Target level: 75.0 dB
* Note: ; 
* Measurement: Pure (Stock Narrow Deep) L
* Smoothing: 1/24 octave
* Frequency Step: 1/48 octave
* Start Frequency: 20.300 Hz
*
* Freq(Hz), SPL(dB), Phase(degrees)
20.299999, 82.138, -174.8682
20.600000, 82.129, -175.1418
20.900000, 82.118, -175.4422
21.200001, 82.106, -175.7435
21.400000, 82.098, -175.9471
21.799999, 82.081, -176.3650
22.000000, 82.070, -176.5774
22.400000, 82.042, -176.9959
22.700001, 82.014, -177.2906
23.000000, 81.983, -177.5591
23.299999, 81.953, -177.8006
23.600000, 81.926, -178.0229
24.000000, 81.901, -178.3136
24.299999, 81.890, -178.5437
24.700001, 81.882, -178.8742
25.000000, 81.876, -179.1303
25.400000, 81.864, -179.4561
25.799999, 81.844, -179.7400
26.200001, 81.820, -179.9824
26.500000, 81.800, 179.8460
26.900000, 81.775, 179.6001
27.200001, 81.756, 179.3905
27.600000, 81.731, 179.0825
28.000000, 81.707, 178.7718
28.500000, 81.679, 178.4335
29.000000, 81.655, 178.1692
29.500000, 81.632, 177.9388
30.000000, 81.602, 177.6932
30.400000, 81.573, 177.4795
30.700001, 81.549, 177.3170
31.100000, 81.519, 177.1063
31.500000, 81.495, 176.9052
32.000000, 81.469, 176.6671
32.500000, 81.440, 176.4653
33.000000, 81.403, 176.3444
33.500000, 81.367, 176.3102
34.000000, 81.346, 176.2791
34.500000, 81.339, 176.1281
35.000000, 81.332, 175.8182
35.500000, 81.308, 175.4449
36.000000, 81.268, 175.1424
36.500000, 81.228, 174.9525
37.000000, 81.197, 174.8020
37.500000, 81.170, 174.6178
38.200001, 81.122, 174.3602
38.700001, 81.084, 174.2454
39.500000, 81.035, 174.0203
40.000000, 80.998, 173.7270
40.599998, 80.931, 173.3381
41.200001, 80.867, 173.1487
41.799999, 80.850, 173.1618
42.500000, 80.878, 173.1489
43.099998, 80.885, 173.0452
43.700001, 80.854, 172.9670
44.400002, 80.797, 172.8675
45.000000, 80.743, 172.6501
45.500000, 80.694, 172.4274
46.200001, 80.635, 172.2666
46.799999, 80.612, 172.2804
47.500000, 80.600, 172.2726
48.200001, 80.568, 172.1665
48.700001, 80.534, 172.0888
49.400002, 80.494, 172.0024
50.000000, 80.475, 171.9089
50.799999, 80.446, 171.7840
51.500000, 80.409, 171.7430
52.200001, 80.375, 171.7007
53.000000, 80.348, 171.5542
53.799999, 80.318, 171.4583
54.500000, 80.281, 171.5097
55.200001, 80.228, 171.5460
56.000000, 80.151, 171.4531
57.000000, 80.085, 171.2555
58.000000, 80.067, 171.0140
59.000000, 80.023, 170.9151
60.000000, 79.980, 170.9690
60.799999, 79.955, 171.0248
61.500000, 79.932, 171.1088
62.200001, 79.902, 171.1711
63.000000, 79.861, 171.1367
64.000000, 79.816, 171.0095
65.000000, 79.777, 170.9385
66.000000, 79.724, 170.9965
67.000000, 79.673, 171.0330
68.000000, 79.632, 171.0137
69.000000, 79.597, 171.0723
70.000000, 79.563, 171.1292
71.000000, 79.525, 171.0977
72.000000, 79.486, 171.0659
73.000000, 79.453, 171.1034
74.000000, 79.422, 171.1579
75.000000, 79.386, 171.1809
76.199997, 79.338, 171.2160
77.500000, 79.291, 171.3218
78.800003, 79.237, 171.3991
80.000000, 79.189, 171.4405
81.199997, 79.153, 171.5027
82.500000, 79.109, 171.5878
83.800003, 79.055, 171.6318
85.000000, 79.016, 171.7417
86.199997, 78.999, 171.9449
87.500000, 78.971, 171.9900
88.500000, 78.938, 171.9059
90.000000, 78.894, 171.9244
91.199997, 78.852, 172.1558
92.500000, 78.799, 172.3738
93.800003, 78.758, 172.4418
95.000000, 78.724, 172.4789
96.199997, 78.688, 172.5781
97.500000, 78.652, 172.7043
98.800003, 78.619, 172.8020
100.000000, 78.588, 172.9130
101.500000, 78.549, 173.0288
103.000000, 78.508, 173.1686
104.400002, 78.476, 173.3135
106.000000, 78.460, 173.6189
107.500000, 78.434, 173.8276
109.000000, 78.378, 173.8199
110.599998, 78.333, 173.9397
112.000000, 78.302, 174.1180
113.800003, 78.263, 174.3333
115.000000, 78.232, 174.4136
117.199997, 78.176, 174.5620
118.000000, 78.158, 174.6724
120.599998, 78.104, 174.9836
122.000000, 78.082, 175.0796
124.099998, 78.039, 175.2209
125.000000, 78.017, 175.2791
126.500000, 77.985, 175.4136
128.000000, 77.962, 175.5972
131.500000, 77.898, 175.9756
132.000000, 77.886, 176.0245
134.000000, 77.847, 176.2322
136.000000, 77.809, 176.4596
138.000000, 77.773, 176.7044
140.000000, 77.741, 176.9422
143.000000, 77.685, 177.2589
145.000000, 77.651, 177.4811
147.500000, 77.614, 177.7528
150.000000, 77.576, 178.0428
152.500000, 77.546, 178.3243
155.000000, 77.514, 178.5729
157.500000, 77.477, 178.8314
160.000000, 77.437, 179.1140
162.500000, 77.404, 179.3789
165.000000, 77.376, 179.6647
167.500000, 77.341, 179.9060
170.000000, 77.309, -179.8324
172.500000, 77.281, -179.5421
175.000000, 77.248, -179.2442
177.500000, 77.221, -178.9713
180.000000, 77.192, -178.7848
182.500000, 77.163, -178.5715
185.000000, 77.134, -178.2914
187.500000, 77.100, -177.9746
190.000000, 77.068, -177.6861
192.500000, 77.039, -177.4637
195.000000, 77.011, -177.2472
197.500000, 76.984, -176.9724
200.000000, 76.959, -176.6782
203.000000, 76.932, -176.3683
206.000000, 76.908, -176.0878
209.000000, 76.876, -175.8040
212.000000, 76.842, -175.4666
214.000000, 76.824, -175.2516
218.000000, 76.784, -174.8828
220.000000, 76.760, -174.6891
224.000000, 76.717, -174.2775
227.000000, 76.686, -173.9608
230.000000, 76.656, -173.6413
233.000000, 76.624, -173.3292
236.000000, 76.595, -173.0168
240.000000, 76.554, -172.6069
243.000000, 76.520, -172.2707
247.000000, 76.472, -171.6900
250.000000, 76.441, -171.2813
254.000000, 76.412, -170.7127
258.000000, 76.396, -170.0564
262.000000, 76.396, -169.3858
265.000000, 76.417, -168.9453
269.000000, 76.450, -168.5243
272.000000, 76.462, -168.3082
276.000000, 76.458, -168.1199
280.000000, 76.447, -167.9864
285.000000, 76.421, -167.7326
290.000000, 76.382, -167.4530
295.000000, 76.339, -167.1128
300.000000, 76.301, -166.7345
304.000000, 76.270, -166.4389
307.000000, 76.248, -166.2074
311.000000, 76.220, -165.8885
315.000000, 76.195, -165.5609
320.000000, 76.166, -165.1376
325.000000, 76.133, -164.7063
330.000000, 76.098, -164.2949
335.000000, 76.065, -163.8616
340.000000, 76.035, -163.4360
345.000000, 76.003, -163.0194
350.000000, 75.973, -162.5986
355.000000, 75.942, -162.1643
360.000000, 75.907, -161.7224
365.000000, 75.874, -161.2870
370.000000, 75.847, -160.8574
375.000000, 75.821, -160.4420
382.000000, 75.779, -159.8139
387.000000, 75.753, -159.3492
395.000000, 75.712, -158.6667
400.000000, 75.685, -158.2648
406.000000, 75.652, -157.7267
412.000000, 75.622, -157.1897
418.000000, 75.592, -156.6900
425.000000, 75.556, -156.1404
431.000000, 75.528, -155.6175
437.000000, 75.505, -155.1161
444.000000, 75.477, -154.5247
450.000000, 75.445, -154.0145
455.000000, 75.418, -153.6046
462.000000, 75.381, -153.0455
468.000000, 75.352, -152.5634
475.000000, 75.315, -151.9760
482.000000, 75.280, -151.3768
487.000000, 75.253, -150.9414
494.000000, 75.214, -150.3340
500.000000, 75.182, -149.8470
508.000000, 75.138, -149.1906
515.000000, 75.098, -148.5645
522.000000, 75.063, -147.9514
530.000000, 75.026, -147.2790
538.000000, 74.988, -146.6021
545.000000, 74.953, -145.9734
552.000000, 74.921, -145.3262
560.000000, 74.886, -144.5908
570.000000, 74.839, -143.6875
580.000000, 74.790, -142.7632
590.000000, 74.748, -141.8653
600.000000, 74.708, -141.0050
608.000000, 74.673, -140.3605
615.000000, 74.639, -139.7624
622.000000, 74.603, -139.1198
630.000000, 74.560, -138.3785
640.000000, 74.508, -137.3769
650.000000, 74.461, -136.3322
660.000000, 74.422, -135.2934
670.000000, 74.389, -134.2804
680.000000, 74.354, -133.2763
690.000000, 74.316, -132.2673
700.000000, 74.284, -131.2591
710.000000, 74.257, -130.2427
720.000000, 74.231, -129.2092
730.000000, 74.207, -128.1647
740.000000, 74.185, -127.1107
750.000000, 74.164, -126.0667
762.000000, 74.139, -124.8155
775.000000, 74.120, -123.4414
788.000000, 74.105, -122.0749
800.000000, 74.092, -120.7820
812.000000, 74.083, -119.4769
825.000000, 74.083, -118.0495
838.000000, 74.085, -116.6341
850.000000, 74.094, -115.3374
862.000000, 74.110, -114.0231
875.000000, 74.132, -112.6269
885.000000, 74.154, -111.5451
900.000000, 74.192, -109.9114
912.000000, 74.225, -108.6395
925.000000, 74.266, -107.2815
938.000000, 74.312, -105.9319
950.000000, 74.361, -104.7023
962.000000, 74.415, -103.4964
975.000000, 74.477, -102.2446
988.000000, 74.544, -101.0320
1000.000000, 74.611, -99.9233
1015.000000, 74.705, -98.5923
1030.000000, 74.802, -97.3039
1044.000000, 74.894, -96.1413
1060.000000, 75.001, -94.8758
1075.000000, 75.101, -93.7470
1090.000000, 75.202, -92.6862
1106.000000, 75.311, -91.6054
1120.000000, 75.406, -90.7099
1138.000000, 75.526, -89.6318
1150.000000, 75.607, -88.9394
1172.000000, 75.752, -87.7233
1180.000000, 75.803, -87.3120
1206.000000, 75.957, -86.0599
1220.000000, 76.035, -85.3966
1241.000000, 76.151, -84.4552
1250.000000, 76.198, -84.0751
1265.000000, 76.271, -83.4681
1280.000000, 76.342, -82.8708
1315.000000, 76.494, -81.4614
1320.000000, 76.515, -81.2629
1340.000000, 76.594, -80.4886
1360.000000, 76.663, -79.7391
1380.000000, 76.728, -78.9857
1400.000000, 76.791, -78.2373
1430.000000, 76.880, -77.0893
1450.000000, 76.937, -76.3011
1475.000000, 77.008, -75.3308
1500.000000, 77.073, -74.3684
1525.000000, 77.137, -73.3604
1550.000000, 77.197, -72.3578
1575.000000, 77.256, -71.3596
1600.000000, 77.320, -70.3569
1625.000000, 77.382, -69.3328
1650.000000, 77.446, -68.2907
1675.000000, 77.513, -67.2670
1700.000000, 77.576, -66.2396
1725.000000, 77.644, -65.2170
1750.000000, 77.714, -64.2248
1775.000000, 77.788, -63.2314
1800.000000, 77.865, -62.2540
1825.000000, 77.942, -61.2624
1850.000000, 78.021, -60.2774
1875.000000, 78.103, -59.3258
1900.000000, 78.189, -58.3940
1925.000000, 78.275, -57.4763
1950.000000, 78.364, -56.5788
1975.000000, 78.458, -55.6969
2000.000000, 78.554, -54.8433
2030.000000, 78.673, -53.8468
2060.000000, 78.795, -52.8901
2090.000000, 78.917, -51.9645
2120.000000, 79.043, -51.0776
2140.000000, 79.129, -50.5153
2180.000000, 79.304, -49.4437
2200.000000, 79.393, -48.9356
2240.000000, 79.572, -48.0064
2270.000000, 79.708, -47.3858
2300.000000, 79.844, -46.8099
2330.000000, 79.980, -46.2833
2360.000000, 80.116, -45.8291
2400.000000, 80.296, -45.3244
2430.000000, 80.429, -45.0087
2470.000000, 80.603, -44.6903
2500.000000, 80.730, -44.5347
2540.000000, 80.890, -44.4155
2580.000000, 81.043, -44.4141
2620.000000, 81.183, -44.5272
2650.000000, 81.279, -44.6537
2690.000000, 81.393, -44.8946
2720.000000, 81.468, -45.1258
2760.000000, 81.554, -45.4893
2800.000000, 81.623, -45.9172
2850.000000, 81.688, -46.4886
2900.000000, 81.727, -47.1114
2950.000000, 81.740, -47.7618
3000.000000, 81.727, -48.4092
3040.000000, 81.694, -48.9216
3070.000000, 81.658, -49.2940
3110.000000, 81.594, -49.7500
3150.000000, 81.515, -50.1404
3200.000000, 81.398, -50.5317
3250.000000, 81.267, -50.8127
3300.000000, 81.126, -50.9568
3350.000000, 80.981, -51.0045
3400.000000, 80.830, -50.9682
3450.000000, 80.672, -50.8251
3500.000000, 80.510, -50.6105
3550.000000, 80.345, -50.3266
3600.000000, 80.177, -49.9482
3650.000000, 80.009, -49.4656
3700.000000, 79.843, -48.9021
3750.000000, 79.681, -48.2590
3820.000000, 79.460, -47.2596
3870.000000, 79.311, -46.4769
3950.000000, 79.089, -45.1219
4000.000000, 78.958, -44.2308
4060.000000, 78.810, -43.1242
4120.000000, 78.671, -42.0003
4180.000000, 78.542, -40.8820
4250.000000, 78.403, -39.5696
4310.000000, 78.292, -38.4403
4370.000000, 78.190, -37.3402
4440.000000, 78.080, -36.1381
4500.000000, 77.990, -35.1538
4550.000000, 77.917, -34.3411
4620.000000, 77.813, -33.2237
4680.000000, 77.720, -32.3399
4750.000000, 77.607, -31.3778
4820.000000, 77.491, -30.4531
4870.000000, 77.404, -29.8113
4940.000000, 77.274, -28.9135
5000.000000, 77.153, -28.1471
5080.000000, 76.976, -27.1208
5150.000000, 76.808, -26.1721
5220.000000, 76.631, -25.1654
5300.000000, 76.422, -23.9048
5380.000000, 76.207, -22.4760
5450.000000, 76.024, -21.1204
5520.000000, 75.851, -19.6747
5600.000000, 75.669, -17.9486
5700.000000, 75.468, -15.7732
5800.000000, 75.288, -13.6637
5900.000000, 75.111, -11.7162
6000.000000, 74.914, -9.8961
6080.000000, 74.733, -8.4385
6150.000000, 74.557, -7.0996
6220.000000, 74.370, -5.6409
6300.000000, 74.153, -3.7780
6400.000000, 73.889, -1.1632
6500.000000, 73.647, 1.7202
6600.000000, 73.432, 4.8127
6700.000000, 73.252, 8.0687
6800.000000, 73.110, 11.4360
6900.000000, 73.005, 14.9081
7000.000000, 72.944, 18.4815
7100.000000, 72.936, 22.0713
7200.000000, 72.985, 25.5664
7300.000000, 73.069, 28.7902
7400.000000, 73.120, 31.8203
7500.000000, 73.174, 35.5729
7620.000000, 73.418, 40.3589
7750.000000, 73.796, 44.7760
7880.000000, 74.231, 48.8040
8000.000000, 74.688, 52.3166
8120.000000, 75.185, 55.8006
8250.000000, 75.866, 60.7977
8380.000000, 77.294, 67.0481
8500.000000, 79.230, 67.8627
8620.000000, 80.922, 62.1150
8750.000000, 82.042, 52.7311
8850.000000, 82.605, 45.0449
9000.000000, 82.986, 32.4110
9120.000000, 82.781, 22.2209
9250.000000, 82.090, 12.6364
9380.000000, 81.098, 5.4579
9500.000000, 80.087, 0.9432
9620.000000, 79.080, -1.9850
9750.000000, 78.022, -3.8070
9880.000000, 76.993, -4.3300
10000.000000, 76.089, -3.5719
10150.000000, 75.107, -1.0309
10300.000000, 74.396, 2.7071
10440.000000, 74.017, 6.4020
10600.000000, 73.859, 9.8453
10750.000000, 73.866, 11.8844
10900.000000, 73.936, 12.7461
11060.000000, 74.004, 12.3926
11200.000000, 73.995, 11.1628
11380.000000, 73.804, 8.7959
11500.000000, 73.543, 7.1455
11720.000000, 72.832, 4.9655
11800.000000, 72.525, 4.5895
12060.000000, 71.493, 5.0233
12200.000000, 70.959, 6.0790
12410.000000, 70.196, 8.7910
12500.000000, 69.910, 10.5725
12650.000000, 69.571, 14.0694
12800.000000, 69.420, 17.4429
13150.000000, 69.473, 23.4802
13200.000000, 69.507, 24.1523
13400.000000, 69.694, 26.4153
13600.000000, 69.959, 28.0257
13800.000000, 70.294, 28.9730
14000.000000, 70.694, 29.0943
14300.000000, 71.387, 27.5541
14500.000000, 71.896, 25.1796
14750.000000, 72.524, 20.2732
15000.000000, 73.019, 12.8624
15250.000000, 73.120, 2.9336
15500.000000, 72.489, -6.9836
15750.000000, 71.463, -13.0372
16000.000000, 70.647, -17.1725
16250.000000, 69.862, -21.2935
16500.000000, 68.970, -24.7263
16750.000000, 67.997, -26.9821
17000.000000, 66.977, -27.8771
17250.000000, 65.934, -27.3845
17500.000000, 64.832, -24.9223
17750.000000, 63.874, -17.5854
18000.000000, 64.535, -2.9882
18250.000000, 66.932, -0.6748
18500.000000, 68.080, -15.3000
18750.000000, 67.391, -32.0998
19000.000000, 65.713, -45.3724
19250.000000, 63.685, -56.2012
19500.000000, 61.481, -66.8688
19750.000000, 59.131, -78.3282
