* Measurement data measured by REW V5.31.3
* Source: Input device not selected, no input selected, L, volume: no control
* Format: 256k Log Swept Sine, 1 sweep at -11.0 dBFS with no timing reference
* Dated: Jul 19, 2025 12:03:09 AM
* REW Settings:
*  C-weighting compensation: Off
*  Target level: 75.0 dB
* Note: ; 
* Measurement: Pure (Stock Narrow Mid) L
* Smoothing: 1/24 octave
* Frequency Step: 1/48 octave
* Start Frequency: 20.300 Hz
*
* Freq(Hz), SPL(dB), Phase(degrees)
20.299999, 81.944, -176.2122
20.600000, 81.929, -176.4029
20.900000, 81.910, -176.6418
21.200001, 81.893, -176.9283
21.400000, 81.881, -177.1468
21.799999, 81.858, -177.6246
22.000000, 81.846, -177.8642
22.400000, 81.821, -178.2973
22.700001, 81.802, -178.5625
23.000000, 81.786, -178.7827
23.299999, 81.773, -178.9828
23.600000, 81.760, -179.1931
24.000000, 81.742, -179.5237
24.299999, 81.725, -179.8107
24.700001, 81.698, 179.7858
25.000000, 81.677, 179.4960
25.400000, 81.653, 179.1539
25.799999, 81.634, 178.8628
26.200001, 81.617, 178.5993
26.500000, 81.603, 178.4045
26.900000, 81.576, 178.1392
27.200001, 81.552, 177.9372
27.600000, 81.516, 177.6699
28.000000, 81.482, 177.4104
28.500000, 81.448, 177.1007
29.000000, 81.422, 176.8092
29.500000, 81.397, 176.5339
30.000000, 81.366, 176.2622
30.400000, 81.337, 176.0369
30.700001, 81.313, 175.8622
31.100000, 81.283, 175.6282
31.500000, 81.256, 175.4048
32.000000, 81.227, 175.1545
32.500000, 81.202, 174.9348
33.000000, 81.171, 174.7301
33.500000, 81.133, 174.5244
34.000000, 81.092, 174.3085
34.500000, 81.056, 174.0824
35.000000, 81.028, 173.8607
35.500000, 81.006, 173.6657
36.000000, 80.982, 173.5047
36.500000, 80.952, 173.3578
37.000000, 80.914, 173.1986
37.500000, 80.871, 173.0255
38.200001, 80.819, 172.7988
38.700001, 80.794, 172.6543
39.500000, 80.764, 172.4077
40.000000, 80.737, 172.2446
40.599998, 80.695, 172.0658
41.200001, 80.653, 171.9017
41.799999, 80.614, 171.7370
42.500000, 80.568, 171.5636
43.099998, 80.528, 171.4363
43.700001, 80.492, 171.3033
44.400002, 80.455, 171.1787
45.000000, 80.431, 171.1640
45.500000, 80.419, 171.1828
46.200001, 80.400, 171.1043
46.799999, 80.359, 170.9133
47.500000, 80.289, 170.6973
48.200001, 80.232, 170.5801
48.700001, 80.207, 170.5125
49.400002, 80.176, 170.3920
50.000000, 80.141, 170.2919
50.799999, 80.091, 170.1898
51.500000, 80.053, 170.1008
52.200001, 80.017, 169.9930
53.000000, 79.970, 169.8629
53.799999, 79.917, 169.7900
54.500000, 79.877, 169.7978
55.200001, 79.840, 169.8262
56.000000, 79.785, 169.8552
57.000000, 79.716, 169.8748
58.000000, 79.679, 169.7375
59.000000, 79.642, 169.5673
60.000000, 79.598, 169.5309
60.799999, 79.566, 169.4962
61.500000, 79.539, 169.4567
62.200001, 79.509, 169.4497
63.000000, 79.469, 169.4682
64.000000, 79.411, 169.4698
65.000000, 79.355, 169.4577
66.000000, 79.311, 169.4204
67.000000, 79.270, 169.3849
68.000000, 79.232, 169.4377
69.000000, 79.189, 169.5119
70.000000, 79.135, 169.5262
71.000000, 79.084, 169.5105
72.000000, 79.041, 169.5391
73.000000, 78.999, 169.6489
74.000000, 78.960, 169.7447
75.000000, 78.925, 169.7526
76.199997, 78.878, 169.7593
77.500000, 78.821, 169.8477
78.800003, 78.771, 169.9231
80.000000, 78.722, 169.9227
81.199997, 78.672, 169.9424
82.500000, 78.623, 170.0472
83.800003, 78.573, 170.1497
85.000000, 78.522, 170.2028
86.199997, 78.486, 170.3065
87.500000, 78.457, 170.3658
88.500000, 78.430, 170.4855
90.000000, 78.399, 170.6383
91.199997, 78.352, 170.6773
92.500000, 78.301, 170.8241
93.800003, 78.263, 170.9911
95.000000, 78.224, 171.1152
96.199997, 78.183, 171.2188
97.500000, 78.135, 171.3038
98.800003, 78.090, 171.4237
100.000000, 78.065, 171.5172
101.500000, 78.031, 171.6721
103.000000, 77.995, 171.9210
104.400002, 77.953, 172.0699
106.000000, 77.841, 171.8844
107.500000, 77.766, 171.8961
109.000000, 77.782, 172.2439
110.599998, 77.775, 172.5491
112.000000, 77.740, 172.8096
113.800003, 77.679, 173.0908
115.000000, 77.654, 173.1514
117.199997, 77.630, 173.2890
118.000000, 77.618, 173.3669
120.599998, 77.550, 173.6335
122.000000, 77.508, 173.9675
124.099998, 77.460, 174.3783
125.000000, 77.446, 174.4243
126.500000, 77.426, 174.4446
128.000000, 77.396, 174.5629
131.500000, 77.296, 174.9874
132.000000, 77.283, 175.0294
134.000000, 77.243, 175.2370
136.000000, 77.201, 175.4853
138.000000, 77.148, 175.6981
140.000000, 77.109, 175.8815
143.000000, 77.047, 176.2457
145.000000, 76.995, 176.5273
147.500000, 76.935, 176.8773
150.000000, 76.887, 177.3079
152.500000, 76.832, 177.7436
155.000000, 76.776, 178.0853
157.500000, 76.721, 178.4955
160.000000, 76.670, 179.0318
162.500000, 76.633, 179.6562
165.000000, 76.614, -179.6486
167.500000, 76.613, -178.9523
170.000000, 76.634, -178.3273
172.500000, 76.660, -177.8789
175.000000, 76.694, -177.6168
177.500000, 76.723, -177.3996
180.000000, 76.731, -177.2407
182.500000, 76.735, -177.1865
185.000000, 76.735, -177.0897
187.500000, 76.724, -176.9501
190.000000, 76.709, -176.8658
192.500000, 76.693, -176.8279
195.000000, 76.672, -176.7446
197.500000, 76.650, -176.6054
200.000000, 76.625, -176.4547
203.000000, 76.592, -176.2664
206.000000, 76.557, -176.0542
209.000000, 76.521, -175.8423
212.000000, 76.484, -175.6024
214.000000, 76.460, -175.4268
218.000000, 76.421, -175.1280
220.000000, 76.402, -174.9545
224.000000, 76.354, -174.5312
227.000000, 76.314, -174.2589
230.000000, 76.283, -173.9893
233.000000, 76.262, -173.7346
236.000000, 76.238, -173.4824
240.000000, 76.199, -173.0817
243.000000, 76.169, -172.8115
247.000000, 76.132, -172.4687
250.000000, 76.104, -172.1644
254.000000, 76.070, -171.7499
258.000000, 76.039, -171.4392
262.000000, 76.008, -171.0663
265.000000, 75.986, -170.7792
269.000000, 75.957, -170.4005
272.000000, 75.933, -170.1243
276.000000, 75.901, -169.7610
280.000000, 75.870, -169.4006
285.000000, 75.834, -168.9216
290.000000, 75.798, -168.4786
295.000000, 75.769, -168.0334
300.000000, 75.740, -167.5749
304.000000, 75.710, -167.2225
307.000000, 75.685, -166.9638
311.000000, 75.655, -166.6051
315.000000, 75.629, -166.2126
320.000000, 75.599, -165.7346
325.000000, 75.567, -165.2680
330.000000, 75.537, -164.8095
335.000000, 75.505, -164.3788
340.000000, 75.470, -163.9471
345.000000, 75.438, -163.5128
350.000000, 75.408, -163.0695
355.000000, 75.377, -162.5985
360.000000, 75.346, -162.1376
365.000000, 75.313, -161.7043
370.000000, 75.279, -161.2470
375.000000, 75.251, -160.7947
382.000000, 75.219, -160.1323
387.000000, 75.190, -159.7095
395.000000, 75.148, -158.9686
400.000000, 75.124, -158.4819
406.000000, 75.097, -157.9237
412.000000, 75.068, -157.3663
418.000000, 75.041, -156.8308
425.000000, 75.013, -156.2377
431.000000, 74.992, -155.7575
437.000000, 74.967, -155.2819
444.000000, 74.935, -154.7166
450.000000, 74.905, -154.2354
455.000000, 74.878, -153.8347
462.000000, 74.842, -153.2785
468.000000, 74.813, -152.7955
475.000000, 74.776, -152.2179
482.000000, 74.738, -151.6116
487.000000, 74.710, -151.1919
494.000000, 74.672, -150.6258
500.000000, 74.640, -150.1128
508.000000, 74.600, -149.3908
515.000000, 74.562, -148.7849
522.000000, 74.524, -148.1866
530.000000, 74.481, -147.4891
538.000000, 74.440, -146.7664
545.000000, 74.405, -146.1090
552.000000, 74.368, -145.4619
560.000000, 74.327, -144.7032
570.000000, 74.280, -143.7362
580.000000, 74.235, -142.8504
590.000000, 74.193, -141.9464
600.000000, 74.150, -141.0105
608.000000, 74.116, -140.2320
615.000000, 74.085, -139.5831
622.000000, 74.055, -138.9538
630.000000, 74.024, -138.1788
640.000000, 73.985, -137.2043
650.000000, 73.947, -136.2316
660.000000, 73.909, -135.2383
670.000000, 73.873, -134.2646
680.000000, 73.837, -133.2825
690.000000, 73.805, -132.2617
700.000000, 73.780, -131.2623
710.000000, 73.754, -130.2765
720.000000, 73.723, -129.2657
730.000000, 73.695, -128.2221
740.000000, 73.673, -127.1679
750.000000, 73.654, -126.1152
762.000000, 73.633, -124.8600
775.000000, 73.614, -123.5307
788.000000, 73.599, -122.1404
800.000000, 73.589, -120.8279
812.000000, 73.585, -119.5443
825.000000, 73.579, -118.1909
838.000000, 73.579, -116.8187
850.000000, 73.590, -115.5138
862.000000, 73.604, -114.1971
875.000000, 73.624, -112.7761
885.000000, 73.645, -111.7271
900.000000, 73.678, -110.1502
912.000000, 73.710, -108.8761
925.000000, 73.751, -107.5406
938.000000, 73.798, -106.2335
950.000000, 73.844, -105.0415
962.000000, 73.897, -103.8863
975.000000, 73.963, -102.6466
988.000000, 74.030, -101.4364
1000.000000, 74.093, -100.3357
1015.000000, 74.178, -99.0095
1030.000000, 74.267, -97.7383
1044.000000, 74.351, -96.5891
1060.000000, 74.448, -95.3343
1075.000000, 74.544, -94.2232
1090.000000, 74.637, -93.1757
1106.000000, 74.738, -92.1012
1120.000000, 74.827, -91.1848
1138.000000, 74.938, -90.0611
1150.000000, 75.011, -89.3764
1172.000000, 75.145, -88.1815
1180.000000, 75.193, -87.7674
1206.000000, 75.341, -86.4635
1220.000000, 75.412, -85.7766
1241.000000, 75.515, -84.7958
1250.000000, 75.556, -84.3935
1265.000000, 75.623, -83.7357
1280.000000, 75.685, -83.1063
1315.000000, 75.821, -81.6345
1320.000000, 75.839, -81.4186
1340.000000, 75.912, -80.5548
1360.000000, 75.979, -79.7192
1380.000000, 76.039, -78.9400
1400.000000, 76.093, -78.1293
1430.000000, 76.176, -76.8715
1450.000000, 76.229, -76.0285
1475.000000, 76.296, -74.9602
1500.000000, 76.357, -73.8922
1525.000000, 76.417, -72.8162
1550.000000, 76.477, -71.7425
1575.000000, 76.536, -70.6357
1600.000000, 76.596, -69.5672
1625.000000, 76.660, -68.4862
1650.000000, 76.724, -67.4011
1675.000000, 76.793, -66.3111
1700.000000, 76.861, -65.2066
1725.000000, 76.929, -64.1156
1750.000000, 77.000, -63.0380
1775.000000, 77.074, -61.9679
1800.000000, 77.152, -60.9170
1825.000000, 77.231, -59.8739
1850.000000, 77.313, -58.8548
1875.000000, 77.398, -57.8479
1900.000000, 77.486, -56.8487
1925.000000, 77.579, -55.8624
1950.000000, 77.671, -54.8953
1975.000000, 77.764, -53.9603
2000.000000, 77.860, -53.0450
2030.000000, 77.978, -51.9793
2060.000000, 78.101, -50.9477
2090.000000, 78.230, -49.9615
2120.000000, 78.359, -49.0128
2140.000000, 78.447, -48.4105
2180.000000, 78.627, -47.2808
2200.000000, 78.718, -46.7455
2240.000000, 78.904, -45.7410
2270.000000, 79.043, -45.0582
2300.000000, 79.181, -44.4267
2330.000000, 79.323, -43.8451
2360.000000, 79.465, -43.3293
2400.000000, 79.650, -42.7462
2430.000000, 79.786, -42.3724
2470.000000, 79.964, -41.9881
2500.000000, 80.094, -41.7780
2540.000000, 80.257, -41.5845
2580.000000, 80.412, -41.4910
2620.000000, 80.555, -41.5015
2650.000000, 80.651, -41.5716
2690.000000, 80.767, -41.7389
2720.000000, 80.844, -41.9024
2760.000000, 80.933, -42.1499
2800.000000, 81.006, -42.4374
2850.000000, 81.080, -42.8483
2900.000000, 81.130, -43.2924
2950.000000, 81.158, -43.8015
3000.000000, 81.159, -44.3507
3040.000000, 81.138, -44.7967
3070.000000, 81.109, -45.1188
3110.000000, 81.053, -45.5081
3150.000000, 80.983, -45.8255
3200.000000, 80.877, -46.1179
3250.000000, 80.756, -46.2820
3300.000000, 80.623, -46.3032
3350.000000, 80.486, -46.2055
3400.000000, 80.346, -46.0123
3450.000000, 80.204, -45.7474
3500.000000, 80.057, -45.3972
3550.000000, 79.910, -44.9642
3600.000000, 79.762, -44.4385
3650.000000, 79.613, -43.8262
3700.000000, 79.467, -43.1434
3750.000000, 79.327, -42.3917
3820.000000, 79.141, -41.2173
3870.000000, 79.015, -40.3198
3950.000000, 78.832, -38.7947
4000.000000, 78.724, -37.8020
4060.000000, 78.604, -36.5999
4120.000000, 78.498, -35.3751
4180.000000, 78.404, -34.1537
4250.000000, 78.305, -32.7442
4310.000000, 78.232, -31.5646
4370.000000, 78.166, -30.4264
4440.000000, 78.093, -29.1450
4500.000000, 78.033, -28.0835
4550.000000, 77.984, -27.2436
4620.000000, 77.912, -26.1174
4680.000000, 77.850, -25.1814
4750.000000, 77.777, -24.1313
4820.000000, 77.699, -23.1358
4870.000000, 77.639, -22.4424
4940.000000, 77.546, -21.4922
5000.000000, 77.460, -20.6863
5080.000000, 77.328, -19.6095
5150.000000, 77.197, -18.6173
5220.000000, 77.060, -17.5309
5300.000000, 76.898, -16.1457
5380.000000, 76.736, -14.6311
5450.000000, 76.600, -13.1974
5520.000000, 76.480, -11.6535
5600.000000, 76.361, -9.7971
5700.000000, 76.244, -7.5137
5800.000000, 76.154, -5.3249
5900.000000, 76.076, -3.2676
6000.000000, 75.995, -1.3280
6080.000000, 75.920, 0.1921
6150.000000, 75.848, 1.5373
6220.000000, 75.770, 2.9230
6300.000000, 75.681, 4.5830
6400.000000, 75.575, 6.7769
6500.000000, 75.476, 9.1223
6600.000000, 75.396, 11.6653
6700.000000, 75.345, 14.4108
6800.000000, 75.334, 17.3319
6900.000000, 75.383, 20.4047
7000.000000, 75.505, 23.5526
7100.000000, 75.712, 26.6085
7200.000000, 76.009, 29.3985
7300.000000, 76.371, 31.6582
7400.000000, 76.737, 33.4090
7500.000000, 77.145, 35.3653
7620.000000, 77.844, 37.1788
7750.000000, 78.740, 37.0995
7880.000000, 79.650, 34.7636
8000.000000, 80.379, 30.3011
8120.000000, 80.796, 23.8776
8250.000000, 80.701, 16.7755
8380.000000, 80.449, 12.5705
8500.000000, 80.532, 7.8673
8620.000000, 80.330, 0.0121
8750.000000, 79.266, -7.4702
8850.000000, 78.202, -10.1310
9000.000000, 76.754, -10.6263
9120.000000, 75.808, -9.4703
9250.000000, 74.973, -7.5092
9380.000000, 74.311, -5.3160
9500.000000, 73.810, -3.4374
9620.000000, 73.359, -1.9124
9750.000000, 72.857, -0.5535
9880.000000, 72.281, 1.1122
10000.000000, 71.721, 3.5475
10150.000000, 71.123, 7.9720
10300.000000, 70.780, 13.3723
10440.000000, 70.749, 18.3332
10600.000000, 70.992, 22.7204
10750.000000, 71.347, 25.0278
10900.000000, 71.699, 25.6310
11060.000000, 71.963, 24.7519
11200.000000, 72.028, 23.0931
11380.000000, 71.836, 20.6324
11500.000000, 71.557, 19.3406
11720.000000, 70.852, 18.6331
11800.000000, 70.574, 18.9715
12060.000000, 69.765, 21.7535
12200.000000, 69.416, 23.9054
12410.000000, 68.981, 27.9670
12500.000000, 68.851, 30.1703
12650.000000, 68.781, 34.1962
12800.000000, 68.900, 37.9290
13150.000000, 69.581, 43.8819
13200.000000, 69.707, 44.4588
13400.000000, 70.269, 46.1593
13600.000000, 70.901, 46.7404
13800.000000, 71.585, 46.0797
14000.000000, 72.283, 44.0936
14300.000000, 73.253, 38.5062
14500.000000, 73.778, 33.0235
14750.000000, 74.194, 24.5423
15000.000000, 74.248, 14.7985
15250.000000, 73.817, 4.5298
15500.000000, 72.744, -3.7737
15750.000000, 71.501, -6.7068
16000.000000, 70.767, -7.3407
16250.000000, 70.338, -8.5400
16500.000000, 70.019, -9.9358
16750.000000, 69.792, -11.3745
17000.000000, 69.667, -13.2037
17250.000000, 69.599, -15.8588
17500.000000, 69.441, -19.4681
17750.000000, 69.118, -22.1758
18000.000000, 69.541, -21.7521
18250.000000, 71.147, -29.6903
18500.000000, 71.534, -50.8556
18750.000000, 69.892, -73.9199
19000.000000, 66.801, -92.5951
19250.000000, 62.857, -105.6495
19500.000000, 58.455, -113.6544
19750.000000, 53.978, -117.6343
