* Measurement data measured by REW V5.31.3
* Source: Input device not selected, no input selected, L, volume: no control
* Format: 256k Log Swept Sine, 1 sweep at -11.0 dBFS with no timing reference
* Dated: Jun 1, 2025 11:49:33 PM
* REW Settings:
*  C-weighting compensation: Off
*  Target level: 75.0 dB
* Note: ; 
* Measurement: R6 (Stock M Deep) L
* Smoothing: 1/24 octave
* Frequency Step: 1/48 octave
* Start Frequency: 20.300 Hz
*
* Freq(Hz), SPL(dB), Phase(degrees)
20.299999, 82.383, -147.0916
20.600000, 82.403, -147.5169
20.900000, 82.428, -148.0068
21.200001, 82.456, -148.5229
21.400000, 82.475, -148.8790
21.799999, 82.512, -149.5972
22.000000, 82.528, -149.9436
22.400000, 82.554, -150.5755
22.700001, 82.570, -150.9851
23.000000, 82.585, -151.3502
23.299999, 82.601, -151.6973
23.600000, 82.619, -152.0575
24.000000, 82.644, -152.5950
24.299999, 82.661, -153.0462
24.700001, 82.681, -153.6864
25.000000, 82.694, -154.1689
25.400000, 82.711, -154.7851
25.799999, 82.727, -155.3573
26.200001, 82.742, -155.8888
26.500000, 82.751, -156.2635
26.900000, 82.758, -156.7305
27.200001, 82.763, -157.0560
27.600000, 82.771, -157.4654
28.000000, 82.786, -157.8687
28.500000, 82.811, -158.4011
29.000000, 82.835, -158.9727
29.500000, 82.849, -159.5466
30.000000, 82.853, -160.0877
30.400000, 82.853, -160.5014
30.700001, 82.853, -160.8111
31.100000, 82.852, -161.2294
31.500000, 82.848, -161.6426
32.000000, 82.840, -162.1135
32.500000, 82.834, -162.5030
33.000000, 82.835, -162.8324
33.500000, 82.844, -163.1598
34.000000, 82.857, -163.5253
34.500000, 82.866, -163.9221
35.000000, 82.869, -164.3223
35.500000, 82.870, -164.7161
36.000000, 82.867, -165.1168
36.500000, 82.861, -165.5313
37.000000, 82.850, -165.9376
37.500000, 82.841, -166.3038
38.200001, 82.839, -166.7497
38.700001, 82.844, -167.0633
39.500000, 82.841, -167.5988
40.000000, 82.830, -167.9255
40.599998, 82.818, -168.2983
41.200001, 82.814, -168.6829
41.799999, 82.813, -169.0790
42.500000, 82.806, -169.4830
43.099998, 82.798, -169.7632
43.700001, 82.792, -170.0473
44.400002, 82.782, -170.4293
45.000000, 82.766, -170.7528
45.500000, 82.750, -170.9914
46.200001, 82.728, -171.3100
46.799999, 82.705, -171.6084
47.500000, 82.674, -171.9775
48.200001, 82.648, -172.3322
48.700001, 82.634, -172.5734
49.400002, 82.618, -172.9041
50.000000, 82.604, -173.1805
50.799999, 82.584, -173.5311
51.500000, 82.569, -173.8177
52.200001, 82.555, -174.0749
53.000000, 82.536, -174.3382
53.799999, 82.512, -174.6234
54.500000, 82.488, -174.9035
55.200001, 82.463, -175.1643
56.000000, 82.440, -175.4198
57.000000, 82.413, -175.7524
58.000000, 82.380, -176.0716
59.000000, 82.353, -176.3297
60.000000, 82.323, -176.6065
60.799999, 82.292, -176.8580
61.500000, 82.268, -177.0855
62.200001, 82.250, -177.3044
63.000000, 82.229, -177.5293
64.000000, 82.196, -177.7806
65.000000, 82.162, -178.0142
66.000000, 82.129, -178.1989
67.000000, 82.098, -178.3486
68.000000, 82.071, -178.5774
69.000000, 82.040, -178.8615
70.000000, 82.003, -179.0813
71.000000, 81.966, -179.2602
72.000000, 81.934, -179.4470
73.000000, 81.901, -179.6271
74.000000, 81.863, -179.7807
75.000000, 81.829, -179.9327
76.199997, 81.794, 179.8871
77.500000, 81.749, 179.7350
78.800003, 81.702, 179.5301
80.000000, 81.659, 179.3492
81.199997, 81.618, 179.2365
82.500000, 81.576, 179.0851
83.800003, 81.537, 178.9474
85.000000, 81.507, 178.8779
86.199997, 81.475, 178.8205
87.500000, 81.430, 178.7541
88.500000, 81.389, 178.6786
90.000000, 81.323, 178.5895
91.199997, 81.277, 178.5234
92.500000, 81.231, 178.4326
93.800003, 81.187, 178.3068
95.000000, 81.149, 178.1840
96.199997, 81.118, 178.1157
97.500000, 81.086, 178.0898
98.800003, 81.047, 178.0764
100.000000, 81.007, 178.0563
101.500000, 80.960, 178.0266
103.000000, 80.916, 177.9990
104.400002, 80.878, 177.9896
106.000000, 80.829, 177.9857
107.500000, 80.779, 177.9644
109.000000, 80.731, 177.9586
110.599998, 80.680, 177.9685
112.000000, 80.635, 177.9689
113.800003, 80.584, 178.0335
115.000000, 80.553, 178.0858
117.199997, 80.489, 178.1410
118.000000, 80.464, 178.1552
120.599998, 80.383, 178.2545
122.000000, 80.346, 178.3038
124.099998, 80.292, 178.3698
125.000000, 80.267, 178.4101
126.500000, 80.223, 178.4730
128.000000, 80.180, 178.5345
131.500000, 80.088, 178.6969
132.000000, 80.076, 178.7261
134.000000, 80.027, 178.8530
136.000000, 79.976, 178.9700
138.000000, 79.924, 179.1036
140.000000, 79.873, 179.2454
143.000000, 79.794, 179.4615
145.000000, 79.743, 179.5998
147.500000, 79.685, 179.7864
150.000000, 79.628, -179.9993
152.500000, 79.570, -179.7781
155.000000, 79.509, -179.5636
157.500000, 79.451, -179.3545
160.000000, 79.395, -179.1190
162.500000, 79.338, -178.8887
165.000000, 79.282, -178.6345
167.500000, 79.225, -178.3476
170.000000, 79.167, -178.0849
172.500000, 79.109, -177.8358
175.000000, 79.051, -177.5560
177.500000, 78.992, -177.2593
180.000000, 78.932, -176.9518
182.500000, 78.871, -176.6041
185.000000, 78.811, -176.2016
187.500000, 78.755, -175.7293
190.000000, 78.706, -175.1726
192.500000, 78.673, -174.5612
195.000000, 78.663, -173.9617
197.500000, 78.673, -173.4813
200.000000, 78.687, -173.1734
203.000000, 78.689, -172.9730
206.000000, 78.675, -172.8313
209.000000, 78.648, -172.6887
212.000000, 78.611, -172.4849
214.000000, 78.585, -172.3275
218.000000, 78.528, -171.9652
220.000000, 78.499, -171.7741
224.000000, 78.444, -171.3746
227.000000, 78.402, -171.0237
230.000000, 78.359, -170.6692
233.000000, 78.319, -170.3273
236.000000, 78.281, -170.0004
240.000000, 78.233, -169.5373
243.000000, 78.194, -169.1856
247.000000, 78.145, -168.6837
250.000000, 78.111, -168.3079
254.000000, 78.067, -167.8110
258.000000, 78.026, -167.3058
262.000000, 77.984, -166.8153
265.000000, 77.951, -166.4439
269.000000, 77.909, -165.9481
272.000000, 77.880, -165.5691
276.000000, 77.842, -165.0456
280.000000, 77.807, -164.5471
285.000000, 77.768, -163.9653
290.000000, 77.728, -163.3292
295.000000, 77.683, -162.6951
300.000000, 77.639, -162.0276
304.000000, 77.607, -161.5109
307.000000, 77.584, -161.1151
311.000000, 77.556, -160.5815
315.000000, 77.529, -160.0500
320.000000, 77.497, -159.3510
325.000000, 77.467, -158.6474
330.000000, 77.443, -157.9665
335.000000, 77.423, -157.2789
340.000000, 77.408, -156.5835
345.000000, 77.400, -155.9347
350.000000, 77.393, -155.3599
355.000000, 77.383, -154.8090
360.000000, 77.368, -154.2880
365.000000, 77.350, -153.7726
370.000000, 77.330, -153.2318
375.000000, 77.305, -152.6868
382.000000, 77.272, -151.9264
387.000000, 77.249, -151.3764
395.000000, 77.208, -150.4685
400.000000, 77.185, -149.8999
406.000000, 77.161, -149.2140
412.000000, 77.135, -148.5157
418.000000, 77.109, -147.7954
425.000000, 77.082, -146.9382
431.000000, 77.063, -146.1908
437.000000, 77.052, -145.4439
444.000000, 77.045, -144.6072
450.000000, 77.038, -143.9077
455.000000, 77.029, -143.3659
462.000000, 77.017, -142.6363
468.000000, 77.009, -141.9893
475.000000, 76.996, -141.2252
482.000000, 76.983, -140.4770
487.000000, 76.973, -139.9400
494.000000, 76.959, -139.1700
500.000000, 76.949, -138.4944
508.000000, 76.932, -137.6105
515.000000, 76.921, -136.8444
522.000000, 76.910, -136.0820
530.000000, 76.899, -135.2199
538.000000, 76.890, -134.3240
545.000000, 76.883, -133.5434
552.000000, 76.874, -132.7871
560.000000, 76.865, -131.9193
570.000000, 76.856, -130.8322
580.000000, 76.849, -129.7300
590.000000, 76.845, -128.6360
600.000000, 76.846, -127.5702
608.000000, 76.843, -126.7089
615.000000, 76.842, -125.9536
622.000000, 76.841, -125.1945
630.000000, 76.841, -124.3246
640.000000, 76.843, -123.2304
650.000000, 76.850, -122.1500
660.000000, 76.859, -121.0688
670.000000, 76.864, -119.9960
680.000000, 76.869, -118.9214
690.000000, 76.880, -117.8288
700.000000, 76.891, -116.7427
710.000000, 76.906, -115.6845
720.000000, 76.923, -114.6252
730.000000, 76.943, -113.5516
740.000000, 76.964, -112.4821
750.000000, 76.985, -111.4102
762.000000, 77.015, -110.1148
775.000000, 77.053, -108.7171
788.000000, 77.092, -107.3304
800.000000, 77.134, -106.0701
812.000000, 77.182, -104.7905
825.000000, 77.238, -103.4221
838.000000, 77.295, -102.0652
850.000000, 77.356, -100.8545
862.000000, 77.420, -99.6516
875.000000, 77.496, -98.3562
885.000000, 77.560, -97.3890
900.000000, 77.663, -95.9803
912.000000, 77.751, -94.9235
925.000000, 77.852, -93.8468
938.000000, 77.955, -92.8291
950.000000, 78.052, -91.9906
962.000000, 78.144, -91.2845
975.000000, 78.226, -90.6304
988.000000, 78.279, -90.0027
1000.000000, 78.299, -89.3183
1015.000000, 78.316, -88.1816
1030.000000, 78.380, -86.8581
1044.000000, 78.473, -85.9368
1060.000000, 78.520, -85.3240
1075.000000, 78.469, -84.4165
1090.000000, 78.421, -82.6746
1106.000000, 78.474, -80.3916
1120.000000, 78.599, -78.5694
1138.000000, 78.804, -76.6833
1150.000000, 78.947, -75.6590
1172.000000, 79.198, -74.0888
1180.000000, 79.285, -73.5887
1206.000000, 79.549, -72.1391
1220.000000, 79.681, -71.4269
1241.000000, 79.869, -70.4348
1250.000000, 79.946, -70.0260
1265.000000, 80.071, -69.3620
1280.000000, 80.189, -68.7201
1315.000000, 80.455, -67.3370
1320.000000, 80.491, -67.1503
1340.000000, 80.631, -66.4158
1360.000000, 80.764, -65.6822
1380.000000, 80.892, -64.9685
1400.000000, 81.018, -64.2718
1430.000000, 81.201, -63.2402
1450.000000, 81.319, -62.5693
1475.000000, 81.462, -61.7534
1500.000000, 81.599, -60.9592
1525.000000, 81.736, -60.1751
1550.000000, 81.873, -59.3910
1575.000000, 82.010, -58.6271
1600.000000, 82.143, -57.8888
1625.000000, 82.274, -57.1749
1650.000000, 82.405, -56.4645
1675.000000, 82.534, -55.7603
1700.000000, 82.662, -55.0957
1725.000000, 82.788, -54.4484
1750.000000, 82.912, -53.8303
1775.000000, 83.035, -53.2344
1800.000000, 83.158, -52.6668
1825.000000, 83.279, -52.1318
1850.000000, 83.401, -51.6247
1875.000000, 83.522, -51.1441
1900.000000, 83.639, -50.6905
1925.000000, 83.753, -50.2524
1950.000000, 83.864, -49.8454
1975.000000, 83.973, -49.4683
2000.000000, 84.080, -49.1085
2030.000000, 84.205, -48.7149
2060.000000, 84.328, -48.3612
2090.000000, 84.448, -48.0304
2120.000000, 84.565, -47.7264
2140.000000, 84.641, -47.5475
2180.000000, 84.788, -47.2336
2200.000000, 84.859, -47.0894
2240.000000, 84.995, -46.8324
2270.000000, 85.093, -46.6762
2300.000000, 85.187, -46.5459
2330.000000, 85.276, -46.4434
2360.000000, 85.360, -46.3563
2400.000000, 85.466, -46.2684
2430.000000, 85.539, -46.2270
2470.000000, 85.631, -46.1877
2500.000000, 85.693, -46.1746
2540.000000, 85.768, -46.1824
2580.000000, 85.834, -46.2096
2620.000000, 85.893, -46.2379
2650.000000, 85.931, -46.2615
2690.000000, 85.976, -46.3007
2720.000000, 86.005, -46.3339
2760.000000, 86.038, -46.3820
2800.000000, 86.066, -46.4295
2850.000000, 86.094, -46.4778
2900.000000, 86.114, -46.5222
2950.000000, 86.127, -46.5596
3000.000000, 86.136, -46.5878
3040.000000, 86.139, -46.6125
3070.000000, 86.138, -46.6278
3110.000000, 86.135, -46.6384
3150.000000, 86.130, -46.6462
3200.000000, 86.121, -46.6698
3250.000000, 86.110, -46.7076
3300.000000, 86.097, -46.7543
3350.000000, 86.080, -46.8215
3400.000000, 86.060, -46.9086
3450.000000, 86.034, -47.0170
3500.000000, 86.005, -47.1546
3550.000000, 85.971, -47.3216
3600.000000, 85.931, -47.5231
3650.000000, 85.883, -47.7534
3700.000000, 85.828, -48.0053
3750.000000, 85.765, -48.2896
3820.000000, 85.664, -48.7493
3870.000000, 85.578, -49.1060
3950.000000, 85.417, -49.6981
4000.000000, 85.299, -50.0723
4060.000000, 85.140, -50.5223
4120.000000, 84.961, -50.9507
4180.000000, 84.765, -51.3388
4250.000000, 84.509, -51.7187
4310.000000, 84.269, -51.9639
4370.000000, 84.012, -52.1216
4440.000000, 83.693, -52.1850
4500.000000, 83.404, -52.1145
4550.000000, 83.155, -51.9615
4620.000000, 82.797, -51.6072
4680.000000, 82.483, -51.1692
4750.000000, 82.110, -50.4876
4820.000000, 81.733, -49.6308
4870.000000, 81.462, -48.9146
4940.000000, 81.081, -47.7616
5000.000000, 80.756, -46.6327
5080.000000, 80.331, -44.9337
5150.000000, 79.969, -43.2670
5220.000000, 79.619, -41.4463
5300.000000, 79.239, -39.1864
5380.000000, 78.879, -36.7882
5450.000000, 78.577, -34.5977
5520.000000, 78.290, -32.3146
5600.000000, 77.982, -29.6175
5700.000000, 77.623, -26.1430
5800.000000, 77.294, -22.5699
5900.000000, 76.990, -18.8875
6000.000000, 76.714, -15.0861
6080.000000, 76.516, -11.9912
6150.000000, 76.356, -9.2392
6220.000000, 76.209, -6.4252
6300.000000, 76.057, -3.1297
6400.000000, 75.900, 1.0846
6500.000000, 75.791, 5.3458
6600.000000, 75.720, 9.6009
6700.000000, 75.683, 13.8623
6800.000000, 75.683, 18.1220
6900.000000, 75.723, 22.4028
7000.000000, 75.801, 26.6926
7100.000000, 75.918, 30.9522
7200.000000, 76.086, 35.1689
7300.000000, 76.303, 39.3176
7400.000000, 76.566, 43.3774
7500.000000, 76.875, 47.3531
7620.000000, 77.313, 52.0095
7750.000000, 77.890, 56.8525
7880.000000, 78.583, 61.4041
8000.000000, 79.339, 65.2521
8120.000000, 80.228, 68.6304
8250.000000, 81.367, 71.5352
8380.000000, 82.724, 73.2874
8500.000000, 84.206, 73.2324
8620.000000, 85.896, 70.5060
8750.000000, 87.773, 62.8890
8850.000000, 88.955, 53.0503
9000.000000, 89.662, 33.5075
9120.000000, 89.046, 17.8772
9250.000000, 87.472, 5.3820
9380.000000, 85.525, -1.1205
9500.000000, 83.792, -2.6007
9620.000000, 82.303, -0.9645
9750.000000, 81.033, 3.2058
9880.000000, 80.157, 9.0541
10000.000000, 79.739, 15.2387
10150.000000, 79.772, 22.7067
10300.000000, 80.320, 28.1544
10440.000000, 81.078, 30.3620
10600.000000, 81.951, 29.5162
10750.000000, 82.606, 26.4219
10900.000000, 83.071, 22.0020
11060.000000, 83.370, 16.2533
11200.000000, 83.456, 10.4500
11380.000000, 83.258, 2.2359
11500.000000, 82.898, -3.2987
11720.000000, 81.784, -12.2675
11800.000000, 81.262, -14.8830
12060.000000, 79.325, -20.3720
12200.000000, 78.234, -21.4249
12410.000000, 76.666, -20.9185
12500.000000, 76.037, -20.1016
12650.000000, 75.059, -18.1178
12800.000000, 74.178, -15.5004
13150.000000, 72.489, -7.8073
13200.000000, 72.288, -6.5783
13400.000000, 71.580, -1.4440
13600.000000, 71.027, 3.9684
13800.000000, 70.619, 9.4598
14000.000000, 70.349, 14.9442
14300.000000, 70.218, 23.2436
14500.000000, 70.326, 28.6739
14750.000000, 70.705, 35.2210
15000.000000, 71.389, 41.3667
15250.000000, 72.463, 46.7553
15500.000000, 74.058, 50.6955
15750.000000, 76.332, 51.6127
16000.000000, 79.240, 45.9599
16250.000000, 81.990, 29.6633
16500.000000, 83.171, 3.8329
16750.000000, 82.063, -21.9557
17000.000000, 79.491, -38.8808
17250.000000, 76.772, -46.6130
17500.000000, 74.597, -49.3230
17750.000000, 72.988, -50.5887
18000.000000, 71.749, -52.5097
18250.000000, 70.644, -56.6032
18500.000000, 69.355, -63.5764
18750.000000, 67.457, -72.3511
19000.000000, 64.629, -78.7359
19250.000000, 61.271, -75.8112
19500.000000, 59.165, -70.1340
19750.000000, 57.856, -77.3790
