* Measurement data measured by REW V5.31.3
* Source: Input device not selected, no input selected, L, volume: no control
* Format: 256k Log Swept Sine, 1 sweep at -12.0 dBFS with no timing reference
* Dated: Aug 29, 2024 2:49:35 PM
* REW Settings:
*  C-weighting compensation: Off
*  Target level: 75.0 dB
* Note: ; 
* Measurement: Random DIY IEM
* Smoothing: 1/24 octave
* Frequency Step: 1/48 octave
* Start Frequency: 20.300 Hz
*
* Freq(Hz), SPL(dB), Phase(degrees)
20.299999, 88.685, 156.3441
20.600000, 88.640, 155.8482
20.900000, 88.584, 155.4096
21.200001, 88.529, 155.0864
21.400000, 88.498, 154.9195
21.799999, 88.453, 154.6190
22.000000, 88.437, 154.4483
22.400000, 88.412, 154.0134
22.700001, 88.391, 153.6090
23.000000, 88.363, 153.1698
23.299999, 88.328, 152.7351
23.600000, 88.287, 152.3392
24.000000, 88.227, 151.9056
24.299999, 88.182, 151.6514
24.700001, 88.132, 151.3664
25.000000, 88.106, 151.1413
25.400000, 88.086, 150.7385
25.799999, 88.074, 150.1596
26.200001, 88.052, 149.4359
26.500000, 88.021, 148.8758
26.900000, 87.957, 148.2361
27.200001, 87.900, 147.8948
27.600000, 87.829, 147.6145
28.000000, 87.775, 147.4163
28.500000, 87.727, 147.0611
29.000000, 87.675, 146.5138
29.500000, 87.607, 145.9413
30.000000, 87.539, 145.5176
30.400000, 87.497, 145.2691
30.700001, 87.471, 145.0775
31.100000, 87.433, 144.7558
31.500000, 87.379, 144.3491
32.000000, 87.285, 143.7943
32.500000, 87.183, 143.2725
33.000000, 87.100, 142.7847
33.500000, 87.042, 142.2864
34.000000, 87.000, 141.7878
34.500000, 86.967, 141.3382
35.000000, 86.946, 140.9305
35.500000, 86.932, 140.4933
36.000000, 86.902, 140.0031
36.500000, 86.835, 139.5499
37.000000, 86.738, 139.2380
37.500000, 86.637, 139.0380
38.200001, 86.527, 138.6482
38.700001, 86.470, 138.2001
39.500000, 86.399, 137.5244
40.000000, 86.372, 137.2631
40.599998, 86.341, 136.9770
41.200001, 86.269, 136.5945
41.799999, 86.154, 136.1976
42.500000, 86.036, 135.8009
43.099998, 85.985, 135.3790
43.700001, 85.947, 134.8335
44.400002, 85.867, 134.2673
45.000000, 85.780, 133.9568
45.500000, 85.716, 133.7280
46.200001, 85.648, 133.2904
46.799999, 85.601, 132.8569
47.500000, 85.547, 132.4474
48.200001, 85.484, 132.1387
48.700001, 85.426, 131.9127
49.400002, 85.333, 131.5450
50.000000, 85.257, 131.2000
50.799999, 85.176, 130.7638
51.500000, 85.114, 130.4582
52.200001, 85.042, 130.2031
53.000000, 84.952, 129.8299
53.799999, 84.873, 129.3114
54.500000, 84.823, 128.8760
55.200001, 84.778, 128.5794
56.000000, 84.700, 128.3483
57.000000, 84.554, 128.0050
58.000000, 84.429, 127.6198
59.000000, 84.349, 127.2633
60.000000, 84.226, 126.9478
60.799999, 84.116, 126.7625
61.500000, 84.063, 126.5531
62.200001, 84.046, 126.2471
63.000000, 84.026, 125.8605
64.000000, 83.954, 125.4109
65.000000, 83.830, 125.0338
66.000000, 83.698, 124.8114
67.000000, 83.578, 124.6260
68.000000, 83.472, 124.4104
69.000000, 83.392, 124.0791
70.000000, 83.325, 123.6330
71.000000, 83.257, 123.3421
72.000000, 83.179, 123.2380
73.000000, 83.083, 122.9729
74.000000, 82.986, 122.3881
75.000000, 82.900, 121.8437
76.199997, 82.812, 121.6096
77.500000, 82.729, 121.4463
78.800003, 82.613, 121.0826
80.000000, 82.475, 120.7908
81.199997, 82.364, 120.5124
82.500000, 82.247, 120.2654
83.800003, 82.139, 120.0212
85.000000, 82.060, 119.6865
86.199997, 81.977, 119.3904
87.500000, 81.874, 119.1360
88.500000, 81.792, 118.9783
90.000000, 81.674, 118.6947
91.199997, 81.590, 118.4649
92.500000, 81.506, 118.2609
93.800003, 81.415, 118.0252
95.000000, 81.324, 117.8430
96.199997, 81.238, 117.6513
97.500000, 81.148, 117.4331
98.800003, 81.057, 117.1878
100.000000, 80.974, 116.9389
101.500000, 80.876, 116.7448
103.000000, 80.775, 116.5883
104.400002, 80.679, 116.3636
106.000000, 80.569, 116.1083
107.500000, 80.469, 115.9212
109.000000, 80.372, 115.7462
110.599998, 80.274, 115.5460
112.000000, 80.190, 115.3728
113.800003, 80.082, 115.1512
115.000000, 80.009, 115.0068
117.199997, 79.873, 114.7410
118.000000, 79.823, 114.6496
120.599998, 79.667, 114.4090
122.000000, 79.588, 114.3041
124.099998, 79.467, 114.0821
125.000000, 79.415, 113.9796
126.500000, 79.328, 113.8220
128.000000, 79.241, 113.6952
131.500000, 79.047, 113.4485
132.000000, 79.020, 113.4050
134.000000, 78.913, 113.2312
136.000000, 78.806, 113.0531
138.000000, 78.701, 112.9011
140.000000, 78.596, 112.7549
143.000000, 78.439, 112.5389
145.000000, 78.337, 112.4121
147.500000, 78.210, 112.2686
150.000000, 78.087, 112.1453
152.500000, 77.966, 112.0319
155.000000, 77.849, 111.9217
157.500000, 77.737, 111.7871
160.000000, 77.619, 111.6040
162.500000, 77.501, 111.4609
165.000000, 77.389, 111.3516
167.500000, 77.281, 111.2443
170.000000, 77.177, 111.1674
172.500000, 77.072, 111.0983
175.000000, 76.962, 111.0076
177.500000, 76.852, 110.9584
180.000000, 76.748, 110.8999
182.500000, 76.651, 110.7937
185.000000, 76.555, 110.7299
187.500000, 76.459, 110.6813
190.000000, 76.360, 110.6244
192.500000, 76.261, 110.5749
195.000000, 76.168, 110.5294
197.500000, 76.079, 110.4709
200.000000, 75.991, 110.4034
203.000000, 75.884, 110.3612
206.000000, 75.777, 110.3284
209.000000, 75.670, 110.2999
212.000000, 75.564, 110.2756
214.000000, 75.492, 110.2523
218.000000, 75.352, 110.1982
220.000000, 75.285, 110.1976
224.000000, 75.149, 110.2458
227.000000, 75.049, 110.2370
230.000000, 74.951, 110.2094
233.000000, 74.854, 110.1880
236.000000, 74.761, 110.1607
240.000000, 74.641, 110.1573
243.000000, 74.554, 110.1825
247.000000, 74.430, 110.1725
250.000000, 74.337, 110.1795
254.000000, 74.222, 110.2206
258.000000, 74.114, 110.2685
262.000000, 74.007, 110.3111
265.000000, 73.928, 110.3186
269.000000, 73.813, 110.3229
272.000000, 73.726, 110.3484
276.000000, 73.617, 110.4227
280.000000, 73.514, 110.4818
285.000000, 73.381, 110.5066
290.000000, 73.255, 110.5563
295.000000, 73.133, 110.6502
300.000000, 73.014, 110.7016
304.000000, 72.919, 110.7536
307.000000, 72.849, 110.8322
311.000000, 72.758, 110.9444
315.000000, 72.664, 111.0055
320.000000, 72.547, 111.1005
325.000000, 72.440, 111.1728
330.000000, 72.335, 111.2563
335.000000, 72.226, 111.3918
340.000000, 72.115, 111.5367
345.000000, 72.011, 111.6601
350.000000, 71.913, 111.7702
355.000000, 71.811, 111.8935
360.000000, 71.707, 112.0279
365.000000, 71.603, 112.1584
370.000000, 71.501, 112.3106
375.000000, 71.399, 112.4776
382.000000, 71.271, 112.6536
387.000000, 71.176, 112.7982
395.000000, 71.027, 113.0670
400.000000, 70.939, 113.2205
406.000000, 70.835, 113.4296
412.000000, 70.730, 113.6216
418.000000, 70.628, 113.8295
425.000000, 70.508, 114.0550
431.000000, 70.407, 114.2678
437.000000, 70.307, 114.5576
444.000000, 70.194, 114.8825
450.000000, 70.098, 115.1103
455.000000, 70.018, 115.3060
462.000000, 69.905, 115.6266
468.000000, 69.801, 115.8695
475.000000, 69.679, 116.1846
482.000000, 69.574, 116.5768
487.000000, 69.502, 116.8302
494.000000, 69.396, 117.1430
500.000000, 69.305, 117.3746
508.000000, 69.187, 117.7694
515.000000, 69.088, 118.1877
522.000000, 68.985, 118.6063
530.000000, 68.860, 119.0875
538.000000, 68.748, 119.6212
545.000000, 68.660, 120.1092
552.000000, 68.569, 120.5863
560.000000, 68.458, 121.1244
570.000000, 68.317, 121.9451
580.000000, 68.179, 122.7800
590.000000, 68.051, 123.6959
600.000000, 67.943, 124.7007
608.000000, 67.848, 125.5496
615.000000, 67.767, 126.3136
622.000000, 67.697, 127.1462
630.000000, 67.630, 128.2014
640.000000, 67.561, 129.4965
650.000000, 67.504, 130.8043
660.000000, 67.464, 132.1553
670.000000, 67.441, 133.5381
680.000000, 67.428, 134.9355
690.000000, 67.425, 136.3178
700.000000, 67.439, 137.6297
710.000000, 67.471, 138.9672
720.000000, 67.516, 140.4110
730.000000, 67.581, 141.8053
740.000000, 67.671, 143.1835
750.000000, 67.783, 144.5041
762.000000, 67.947, 145.9543
775.000000, 68.150, 147.3713
788.000000, 68.362, 148.5900
800.000000, 68.564, 149.4758
812.000000, 68.771, 150.1243
825.000000, 69.005, 150.6355
838.000000, 69.237, 151.0088
850.000000, 69.442, 151.2135
862.000000, 69.631, 151.2977
875.000000, 69.818, 151.2854
885.000000, 69.953, 151.2247
900.000000, 70.139, 151.0993
912.000000, 70.276, 150.9668
925.000000, 70.414, 150.8011
938.000000, 70.550, 150.6674
950.000000, 70.676, 150.5502
962.000000, 70.791, 150.4308
975.000000, 70.910, 150.3048
988.000000, 71.029, 150.2099
1000.000000, 71.138, 150.0996
1015.000000, 71.273, 149.8891
1030.000000, 71.411, 149.6726
1044.000000, 71.537, 149.4706
1060.000000, 71.676, 149.2426
1075.000000, 71.806, 149.0398
1090.000000, 71.937, 148.8081
1106.000000, 72.078, 148.5078
1120.000000, 72.201, 148.2522
1138.000000, 72.361, 147.9025
1150.000000, 72.460, 147.6578
1172.000000, 72.635, 147.1854
1180.000000, 72.700, 147.0033
1206.000000, 72.905, 146.3401
1220.000000, 73.012, 145.9717
1241.000000, 73.167, 145.4489
1250.000000, 73.232, 145.2198
1265.000000, 73.339, 144.8105
1280.000000, 73.447, 144.4030
1315.000000, 73.696, 143.4981
1320.000000, 73.730, 143.3741
1340.000000, 73.868, 142.8687
1360.000000, 74.006, 142.3522
1380.000000, 74.141, 141.8290
1400.000000, 74.274, 141.3224
1430.000000, 74.475, 140.5805
1450.000000, 74.609, 140.1198
1475.000000, 74.779, 139.5325
1500.000000, 74.954, 138.9437
1525.000000, 75.135, 138.3599
1550.000000, 75.320, 137.7801
1575.000000, 75.509, 137.2222
1600.000000, 75.698, 136.6156
1625.000000, 75.891, 136.0201
1650.000000, 76.093, 135.4094
1675.000000, 76.301, 134.7582
1700.000000, 76.515, 134.0905
1725.000000, 76.734, 133.3914
1750.000000, 76.960, 132.6628
1775.000000, 77.190, 131.9048
1800.000000, 77.426, 131.1049
1825.000000, 77.667, 130.2484
1850.000000, 77.914, 129.3382
1875.000000, 78.166, 128.3801
1900.000000, 78.422, 127.3676
1925.000000, 78.683, 126.2834
1950.000000, 78.948, 125.1086
1975.000000, 79.218, 123.8647
2000.000000, 79.491, 122.5534
2030.000000, 79.821, 120.8319
2060.000000, 80.151, 118.9707
2090.000000, 80.481, 116.9668
2120.000000, 80.805, 114.8144
2140.000000, 81.017, 113.2946
2180.000000, 81.432, 110.0039
2200.000000, 81.630, 108.2433
2240.000000, 82.002, 104.5285
2270.000000, 82.258, 101.5565
2300.000000, 82.490, 98.4376
2330.000000, 82.695, 95.1901
2360.000000, 82.870, 91.8342
2400.000000, 83.050, 87.2466
2430.000000, 83.144, 83.7596
2470.000000, 83.212, 79.1188
2500.000000, 83.222, 75.6811
2540.000000, 83.182, 71.2276
2580.000000, 83.087, 66.9775
2620.000000, 82.947, 62.9835
2650.000000, 82.819, 60.1810
2690.000000, 82.623, 56.6892
2720.000000, 82.462, 54.2622
2760.000000, 82.237, 51.2918
2800.000000, 82.006, 48.6099
2850.000000, 81.713, 45.6196
2900.000000, 81.423, 43.0082
2950.000000, 81.147, 40.7501
3000.000000, 80.887, 38.7917
3040.000000, 80.695, 37.3994
3070.000000, 80.560, 36.4503
3110.000000, 80.395, 35.3013
3150.000000, 80.247, 34.2679
3200.000000, 80.082, 33.1321
3250.000000, 79.945, 32.1170
3300.000000, 79.833, 31.2067
3350.000000, 79.747, 30.4004
3400.000000, 79.690, 29.6925
3450.000000, 79.661, 29.0423
3500.000000, 79.655, 28.4244
3550.000000, 79.678, 27.8348
3600.000000, 79.730, 27.2462
3650.000000, 79.812, 26.6558
3700.000000, 79.922, 26.0558
3750.000000, 80.061, 25.4128
3820.000000, 80.310, 24.4026
3870.000000, 80.525, 23.5543
3950.000000, 80.933, 21.9428
4000.000000, 81.231, 20.7242
4060.000000, 81.631, 18.9601
4120.000000, 82.080, 16.7823
4180.000000, 82.569, 14.0895
4250.000000, 83.175, 10.1402
4310.000000, 83.706, 5.9104
4370.000000, 84.217, 0.7643
4440.000000, 84.733, -6.4928
4500.000000, 85.047, -13.7272
4550.000000, 85.178, -20.3130
4620.000000, 85.120, -29.9600
4680.000000, 84.835, -38.1404
4750.000000, 84.252, -46.9809
4820.000000, 83.466, -54.6203
4870.000000, 82.824, -59.2222
4940.000000, 81.869, -64.4859
5000.000000, 81.038, -68.0122
5080.000000, 79.955, -71.4941
5150.000000, 79.052, -73.6081
5220.000000, 78.199, -75.0354
5300.000000, 77.295, -76.0266
5380.000000, 76.466, -76.4655
5450.000000, 75.796, -76.4948
5520.000000, 75.172, -76.2625
5600.000000, 74.515, -75.7144
5700.000000, 73.772, -74.6693
5800.000000, 73.104, -73.3425
5900.000000, 72.513, -71.7724
6000.000000, 71.991, -70.0564
6080.000000, 71.616, -68.5475
6150.000000, 71.323, -67.1255
6220.000000, 71.058, -65.6197
6300.000000, 70.783, -63.8720
6400.000000, 70.489, -61.6387
6500.000000, 70.251, -59.3102
6600.000000, 70.066, -56.9098
6700.000000, 69.927, -54.4080
6800.000000, 69.830, -51.8628
6900.000000, 69.788, -49.2769
7000.000000, 69.792, -46.6576
7100.000000, 69.850, -44.0153
7200.000000, 69.976, -41.3716
7300.000000, 70.159, -38.7637
7400.000000, 70.388, -36.2327
7500.000000, 70.669, -33.7437
7620.000000, 71.090, -30.8012
7750.000000, 71.656, -27.7519
7880.000000, 72.361, -24.8547
8000.000000, 73.163, -22.4125
8120.000000, 74.142, -20.3725
8250.000000, 75.438, -19.1907
8380.000000, 76.962, -19.6156
8500.000000, 78.581, -22.0173
8620.000000, 80.366, -27.4951
8750.000000, 82.219, -38.3851
8850.000000, 83.271, -50.4773
9000.000000, 83.705, -71.8900
9120.000000, 82.992, -87.7935
9250.000000, 81.531, -100.3988
9380.000000, 79.866, -107.7021
9500.000000, 78.452, -110.8181
9620.000000, 77.270, -111.6486
9750.000000, 76.264, -110.9576
9880.000000, 75.519, -109.3043
10000.000000, 75.042, -107.2701
10150.000000, 74.705, -104.3852
10300.000000, 74.656, -101.4109
10440.000000, 74.872, -98.8909
10600.000000, 75.436, -96.6660
10750.000000, 76.313, -95.7697
10900.000000, 77.565, -97.1422
11060.000000, 79.208, -103.1922
11200.000000, 80.561, -114.0502
11380.000000, 81.354, -135.1343
11500.000000, 80.920, -150.6689
11720.000000, 78.342, -172.9911
11800.000000, 77.099, -177.9154
12060.000000, 73.134, 176.1198
12200.000000, 71.335, 176.9500
12410.000000, 69.137, -179.3503
12500.000000, 68.352, -177.2340
12650.000000, 67.214, -173.2786
12800.000000, 66.258, -168.9592
13150.000000, 64.642, -158.0372
13200.000000, 64.473, -156.4355
13400.000000, 63.945, -150.0329
13600.000000, 63.656, -143.8138
13800.000000, 63.605, -137.8817
14000.000000, 63.820, -132.3697
14300.000000, 64.674, -125.9327
14500.000000, 65.668, -124.1302
14750.000000, 67.284, -127.6345
15000.000000, 68.657, -140.2406
15250.000000, 68.728, -159.7232
15500.000000, 67.064, -177.8114
15750.000000, 64.329, 172.2029
16000.000000, 61.460, 170.5497
16250.000000, 58.983, 174.1647
16500.000000, 56.984, -179.5730
16750.000000, 55.409, -171.8523
17000.000000, 54.161, -163.4200
17250.000000, 53.237, -154.6323
17500.000000, 52.620, -145.7538
17750.000000, 52.257, -136.8004
18000.000000, 52.163, -128.1949
18250.000000, 52.404, -120.2547
18500.000000, 53.084, -114.1566
18750.000000, 54.132, -112.5828
19000.000000, 55.074, -119.4399
19250.000000, 54.894, -133.1927
19500.000000, 53.803, -132.1646
19750.000000, 55.505, -104.8769
20000.000000, 57.678, -116.0042
