* Measurement data measured by REW V5.31.3
* Source: Input device not selected, no input selected, L, volume: no control
* Format: 256k Log Swept Sine, 1 sweep at -12.0 dBFS with no timing reference
* Dated: Sep 2, 2024 2:33:18 PM
* REW Settings:
*  C-weighting compensation: Off
*  Target level: 75.0 dB
* Note: ; 
* Measurement: Reecho Spring (Stock M) L
* Smoothing: 1/24 octave
* Frequency Step: 1/48 octave
* Start Frequency: 20.300 Hz
*
* Freq(Hz), SPL(dB), Phase(degrees)
20.299999, 76.668, -133.7696
20.600000, 76.672, -134.3143
20.900000, 76.684, -134.9201
21.200001, 76.719, -135.5370
21.400000, 76.755, -135.9431
21.799999, 76.853, -136.7049
22.000000, 76.905, -137.0435
22.400000, 76.997, -137.6160
22.700001, 77.042, -137.9698
23.000000, 77.067, -138.3009
23.299999, 77.076, -138.6601
23.600000, 77.082, -139.0928
24.000000, 77.112, -139.8228
24.299999, 77.166, -140.4750
24.700001, 77.282, -141.4206
25.000000, 77.387, -142.1280
25.400000, 77.515, -142.9798
25.799999, 77.586, -143.6476
26.200001, 77.586, -144.0978
26.500000, 77.555, -144.3318
26.900000, 77.513, -144.6466
27.200001, 77.509, -144.9991
27.600000, 77.554, -145.6995
28.000000, 77.638, -146.5275
28.500000, 77.742, -147.2629
29.000000, 77.815, -147.3511
29.500000, 77.861, -147.3192
30.000000, 77.848, -148.2451
30.400000, 77.754, -150.0168
30.700001, 77.631, -151.7358
31.100000, 77.433, -153.9093
31.500000, 77.289, -155.1717
32.000000, 77.333, -154.9660
32.500000, 77.635, -153.6737
33.000000, 77.985, -152.7117
33.500000, 78.163, -152.5603
34.000000, 78.140, -152.9006
34.500000, 78.044, -153.3961
35.000000, 78.009, -154.0053
35.500000, 78.059, -154.7341
36.000000, 78.126, -155.4065
36.500000, 78.155, -155.8313
37.000000, 78.146, -156.0569
37.500000, 78.131, -156.3283
38.200001, 78.140, -157.0446
38.700001, 78.170, -157.6435
39.500000, 78.229, -158.3469
40.000000, 78.251, -158.6750
40.599998, 78.255, -159.1742
41.200001, 78.245, -159.8400
41.799999, 78.237, -160.4717
42.500000, 78.244, -160.8930
43.099998, 78.258, -161.0760
43.700001, 78.265, -161.3472
44.400002, 78.258, -161.8943
45.000000, 78.252, -162.4633
45.500000, 78.250, -162.9361
46.200001, 78.238, -163.5257
46.799999, 78.220, -163.9223
47.500000, 78.220, -164.2953
48.200001, 78.247, -164.6585
48.700001, 78.264, -164.9020
49.400002, 78.266, -165.1944
50.000000, 78.256, -165.4688
50.799999, 78.240, -165.9823
51.500000, 78.227, -166.4598
52.200001, 78.218, -166.8240
53.000000, 78.215, -167.1760
53.799999, 78.222, -167.6097
54.500000, 78.231, -168.0446
55.200001, 78.228, -168.4421
56.000000, 78.211, -168.8232
57.000000, 78.199, -169.4130
58.000000, 78.177, -170.2080
59.000000, 78.124, -170.7175
60.000000, 78.122, -170.9306
60.799999, 78.146, -171.1308
61.500000, 78.138, -171.2763
62.200001, 78.099, -171.3724
63.000000, 78.053, -171.5559
64.000000, 78.045, -171.9860
65.000000, 78.063, -172.4547
66.000000, 78.047, -172.9122
67.000000, 78.012, -173.3692
68.000000, 77.988, -173.8141
69.000000, 77.962, -174.2476
70.000000, 77.947, -174.6739
71.000000, 77.933, -175.0261
72.000000, 77.893, -175.1798
73.000000, 77.858, -175.3428
74.000000, 77.839, -175.6254
75.000000, 77.818, -175.8960
76.199997, 77.780, -176.2916
77.500000, 77.752, -176.7631
78.800003, 77.725, -177.1104
80.000000, 77.690, -177.3874
81.199997, 77.650, -177.6118
82.500000, 77.607, -177.8539
83.800003, 77.573, -178.1559
85.000000, 77.533, -178.4153
86.199997, 77.488, -178.6427
87.500000, 77.446, -178.9689
88.500000, 77.417, -179.2095
90.000000, 77.375, -179.4586
91.199997, 77.334, -179.6548
92.500000, 77.294, -179.7988
93.800003, 77.242, -179.6787
95.000000, 77.205, -179.6893
96.199997, 77.187, 179.8011
97.500000, 77.153, 179.3481
98.800003, 77.115, 179.1615
100.000000, 77.088, 178.9904
101.500000, 77.048, 178.7698
103.000000, 77.006, 178.5479
104.400002, 76.954, 178.3893
106.000000, 76.888, 178.0910
107.500000, 76.835, 177.8153
109.000000, 76.795, 177.7780
110.599998, 76.750, 177.7795
112.000000, 76.708, 177.7231
113.800003, 76.656, 177.5498
115.000000, 76.614, 177.3651
117.199997, 76.535, 177.2569
118.000000, 76.512, 177.1888
120.599998, 76.438, 176.8705
122.000000, 76.386, 176.9099
124.099998, 76.320, 177.0806
125.000000, 76.308, 177.1430
126.500000, 76.278, 177.0887
128.000000, 76.208, 176.8215
131.500000, 76.085, 176.4859
132.000000, 76.073, 176.4722
134.000000, 76.019, 176.4360
136.000000, 75.954, 176.3998
138.000000, 75.881, 176.4934
140.000000, 75.808, 176.5186
143.000000, 75.728, 176.3766
145.000000, 75.680, 176.3882
147.500000, 75.603, 176.4412
150.000000, 75.508, 176.4653
152.500000, 75.427, 176.4639
155.000000, 75.363, 176.3437
157.500000, 75.275, 176.1849
160.000000, 75.212, 176.4745
162.500000, 75.158, 176.7366
165.000000, 75.078, 176.9030
167.500000, 74.992, 177.1190
170.000000, 74.914, 177.2266
172.500000, 74.849, 177.3195
175.000000, 74.786, 177.4539
177.500000, 74.721, 177.6340
180.000000, 74.650, 177.8722
182.500000, 74.586, 178.0674
185.000000, 74.518, 178.1739
187.500000, 74.441, 178.2632
190.000000, 74.368, 178.4535
192.500000, 74.307, 178.8289
195.000000, 74.254, 179.1420
197.500000, 74.205, 179.3779
200.000000, 74.157, 179.5620
203.000000, 74.093, 179.7946
206.000000, 74.017, -179.8705
209.000000, 73.940, -179.5699
212.000000, 73.867, -179.2504
214.000000, 73.825, -178.9916
218.000000, 73.727, -178.5574
220.000000, 73.676, -178.3755
224.000000, 73.593, -177.8532
227.000000, 73.531, -177.5158
230.000000, 73.476, -177.1890
233.000000, 73.417, -176.8410
236.000000, 73.347, -176.4828
240.000000, 73.260, -175.9474
243.000000, 73.211, -175.5846
247.000000, 73.149, -175.0984
250.000000, 73.102, -174.6666
254.000000, 73.030, -174.0938
258.000000, 72.948, -173.4495
262.000000, 72.872, -172.8445
265.000000, 72.812, -172.4239
269.000000, 72.730, -171.8503
272.000000, 72.683, -171.4221
276.000000, 72.633, -170.8507
280.000000, 72.580, -170.2219
285.000000, 72.507, -169.4126
290.000000, 72.430, -168.6381
295.000000, 72.358, -167.8679
300.000000, 72.288, -167.1547
304.000000, 72.238, -166.5220
307.000000, 72.206, -165.9872
311.000000, 72.166, -165.2677
315.000000, 72.129, -164.5575
320.000000, 72.080, -163.7718
325.000000, 72.022, -162.8319
330.000000, 71.978, -161.8519
335.000000, 71.935, -160.9666
340.000000, 71.891, -160.0793
345.000000, 71.867, -159.2060
350.000000, 71.866, -158.2370
355.000000, 71.876, -157.3052
360.000000, 71.874, -156.4956
365.000000, 71.862, -155.7274
370.000000, 71.854, -154.9948
375.000000, 71.850, -154.2784
382.000000, 71.855, -153.3340
387.000000, 71.858, -152.7779
395.000000, 71.852, -151.7094
400.000000, 71.847, -151.0840
406.000000, 71.854, -150.3389
412.000000, 71.854, -149.5845
418.000000, 71.846, -148.8428
425.000000, 71.851, -147.9553
431.000000, 71.863, -147.2109
437.000000, 71.874, -146.4607
444.000000, 71.879, -145.6797
450.000000, 71.890, -145.0761
455.000000, 71.904, -144.5515
462.000000, 71.919, -143.8011
468.000000, 71.928, -143.1506
475.000000, 71.938, -142.3988
482.000000, 71.954, -141.6566
487.000000, 71.965, -141.2085
494.000000, 71.968, -140.5829
500.000000, 71.966, -140.0829
508.000000, 71.966, -139.3568
515.000000, 71.966, -138.6853
522.000000, 71.962, -138.0796
530.000000, 71.956, -137.3985
538.000000, 71.949, -136.6835
545.000000, 71.944, -136.0481
552.000000, 71.935, -135.4413
560.000000, 71.920, -134.7612
570.000000, 71.905, -133.8702
580.000000, 71.888, -132.8955
590.000000, 71.860, -131.9110
600.000000, 71.834, -130.9262
608.000000, 71.816, -130.1194
615.000000, 71.802, -129.4329
622.000000, 71.782, -128.7728
630.000000, 71.758, -128.0325
640.000000, 71.743, -127.0458
650.000000, 71.722, -125.9780
660.000000, 71.705, -124.8739
670.000000, 71.694, -123.6819
680.000000, 71.679, -122.5103
690.000000, 71.657, -121.3613
700.000000, 71.641, -120.2303
710.000000, 71.643, -119.1070
720.000000, 71.651, -117.9930
730.000000, 71.659, -116.8196
740.000000, 71.672, -115.5561
750.000000, 71.679, -114.2933
762.000000, 71.686, -112.7329
775.000000, 71.698, -111.1015
788.000000, 71.722, -109.4832
800.000000, 71.765, -107.9863
812.000000, 71.824, -106.4743
825.000000, 71.899, -104.8390
838.000000, 71.985, -103.2092
850.000000, 72.061, -101.7658
862.000000, 72.128, -100.4423
875.000000, 72.209, -99.0185
885.000000, 72.284, -97.8914
900.000000, 72.400, -96.1640
912.000000, 72.489, -94.8037
925.000000, 72.589, -93.3587
938.000000, 72.711, -91.9463
950.000000, 72.832, -90.6903
962.000000, 72.954, -89.4445
975.000000, 73.090, -88.1575
988.000000, 73.238, -86.8999
1000.000000, 73.379, -85.7329
1015.000000, 73.544, -84.3459
1030.000000, 73.716, -83.0770
1044.000000, 73.884, -81.9193
1060.000000, 74.087, -80.6457
1075.000000, 74.286, -79.5399
1090.000000, 74.485, -78.5346
1106.000000, 74.696, -77.5204
1120.000000, 74.876, -76.7364
1138.000000, 75.108, -75.7917
1150.000000, 75.268, -75.1826
1172.000000, 75.564, -74.1011
1180.000000, 75.669, -73.7636
1206.000000, 76.011, -72.7737
1220.000000, 76.198, -72.3237
1241.000000, 76.473, -71.7432
1250.000000, 76.589, -71.5079
1265.000000, 76.775, -71.1625
1280.000000, 76.958, -70.8662
1315.000000, 77.370, -70.3470
1320.000000, 77.429, -70.2783
1340.000000, 77.668, -70.0259
1360.000000, 77.909, -69.8682
1380.000000, 78.142, -69.8509
1400.000000, 78.371, -69.9299
1430.000000, 78.705, -70.1633
1450.000000, 78.922, -70.3634
1475.000000, 79.192, -70.7571
1500.000000, 79.453, -71.3072
1525.000000, 79.702, -72.0036
1550.000000, 79.940, -72.8814
1575.000000, 80.167, -73.8873
1600.000000, 80.376, -75.0317
1625.000000, 80.561, -76.3813
1650.000000, 80.714, -77.9252
1675.000000, 80.835, -79.5862
1700.000000, 80.919, -81.3224
1725.000000, 80.962, -83.0830
1750.000000, 80.966, -84.8379
1775.000000, 80.937, -86.5609
1800.000000, 80.873, -88.2396
1825.000000, 80.776, -89.8445
1850.000000, 80.651, -91.3279
1875.000000, 80.499, -92.7214
1900.000000, 80.325, -94.0092
1925.000000, 80.132, -95.1627
1950.000000, 79.922, -96.1689
1975.000000, 79.700, -97.0261
2000.000000, 79.466, -97.7351
2030.000000, 79.167, -98.3399
2060.000000, 78.862, -98.7202
2090.000000, 78.559, -98.9175
2120.000000, 78.252, -98.9705
2140.000000, 78.047, -98.9173
2180.000000, 77.643, -98.5663
2200.000000, 77.442, -98.2889
2240.000000, 77.050, -97.5392
2270.000000, 76.775, -96.8740
2300.000000, 76.507, -96.1038
2330.000000, 76.240, -95.1663
2360.000000, 75.981, -94.1336
2400.000000, 75.654, -92.7072
2430.000000, 75.418, -91.5561
2470.000000, 75.119, -89.8523
2500.000000, 74.910, -88.5279
2540.000000, 74.642, -86.7409
2580.000000, 74.389, -84.8504
2620.000000, 74.151, -82.8827
2650.000000, 73.983, -81.3870
2690.000000, 73.772, -79.3305
2720.000000, 73.625, -77.7575
2760.000000, 73.445, -75.6574
2800.000000, 73.272, -73.4952
2850.000000, 73.072, -70.6993
2900.000000, 72.906, -67.9010
2950.000000, 72.761, -65.0767
3000.000000, 72.623, -62.1844
3040.000000, 72.533, -59.9208
3070.000000, 72.474, -58.2157
3110.000000, 72.403, -55.8981
3150.000000, 72.344, -53.5276
3200.000000, 72.296, -50.5454
3250.000000, 72.270, -47.5818
3300.000000, 72.276, -44.6458
3350.000000, 72.296, -41.7720
3400.000000, 72.332, -38.9014
3450.000000, 72.394, -36.0074
3500.000000, 72.475, -33.1477
3550.000000, 72.591, -30.3589
3600.000000, 72.746, -27.6206
3650.000000, 72.928, -24.9638
3700.000000, 73.142, -22.4056
3750.000000, 73.390, -20.0301
3820.000000, 73.779, -17.2013
3870.000000, 74.083, -15.5853
3950.000000, 74.571, -13.7447
4000.000000, 74.844, -13.0058
4060.000000, 75.117, -12.3431
4120.000000, 75.343, -11.7591
4180.000000, 75.545, -11.0888
4250.000000, 75.779, -10.1034
4310.000000, 76.002, -9.2076
4370.000000, 76.255, -8.3872
4440.000000, 76.596, -7.7142
4500.000000, 76.920, -7.5229
4550.000000, 77.195, -7.7131
4620.000000, 77.563, -8.5834
4680.000000, 77.845, -9.8765
4750.000000, 78.106, -11.9755
4820.000000, 78.259, -14.5826
4870.000000, 78.292, -16.6365
4940.000000, 78.222, -19.5976
5000.000000, 78.049, -22.0016
5080.000000, 77.673, -24.7671
5150.000000, 77.239, -26.5697
5220.000000, 76.740, -27.6820
5300.000000, 76.128, -28.0787
5380.000000, 75.513, -27.5750
5450.000000, 74.994, -26.4974
5520.000000, 74.509, -24.9125
5600.000000, 74.001, -22.6143
5700.000000, 73.438, -19.1636
5800.000000, 72.962, -15.1456
5900.000000, 72.580, -10.7150
6000.000000, 72.307, -5.9066
6080.000000, 72.159, -1.7960
6150.000000, 72.091, 1.8691
6220.000000, 72.084, 5.4775
6300.000000, 72.152, 9.6142
6400.000000, 72.359, 14.7386
6500.000000, 72.704, 19.4915
6600.000000, 73.182, 23.6904
6700.000000, 73.784, 27.0368
6800.000000, 74.483, 29.2127
6900.000000, 75.229, 29.9764
7000.000000, 75.926, 29.1244
7100.000000, 76.467, 26.8975
7200.000000, 76.782, 23.8789
7300.000000, 76.861, 20.8629
7400.000000, 76.748, 18.5847
7500.000000, 76.540, 17.4216
7620.000000, 76.309, 17.5479
7750.000000, 76.238, 19.0741
7880.000000, 76.475, 21.0703
8000.000000, 77.017, 22.2626
8120.000000, 77.854, 21.5619
8250.000000, 78.933, 17.0211
8380.000000, 79.777, 7.5145
8500.000000, 79.899, -4.5985
8620.000000, 79.173, -16.9566
8750.000000, 77.597, -27.2394
8850.000000, 76.095, -31.8623
9000.000000, 73.810, -33.9354
9120.000000, 72.150, -32.5346
9250.000000, 70.589, -29.0653
9380.000000, 69.284, -24.4252
9500.000000, 68.273, -19.5737
9620.000000, 67.423, -14.4113
9750.000000, 66.656, -8.5747
9880.000000, 66.031, -2.5905
10000.000000, 65.571, 2.9529
10150.000000, 65.122, 10.0171
10300.000000, 64.799, 17.1750
10440.000000, 64.648, 23.9299
10600.000000, 64.663, 31.5831
10750.000000, 64.853, 38.5748
10900.000000, 65.226, 45.3165
11060.000000, 65.835, 51.7724
11200.000000, 66.563, 56.4663
11380.000000, 67.811, 60.8818
11500.000000, 68.827, 62.1488
11720.000000, 70.811, 58.6461
11800.000000, 71.438, 55.2182
12060.000000, 72.309, 38.3017
12200.000000, 71.822, 28.7494
12410.000000, 70.169, 19.2764
12500.000000, 69.316, 17.5729
12650.000000, 67.930, 17.4397
12800.000000, 66.734, 19.8025
13150.000000, 64.926, 30.3605
13200.000000, 64.770, 32.1254
13400.000000, 64.362, 39.4038
13600.000000, 64.326, 46.6154
13800.000000, 64.665, 53.0868
14000.000000, 65.307, 58.1111
14300.000000, 66.644, 61.6437
14500.000000, 67.635, 60.8473
14750.000000, 68.696, 56.4785
15000.000000, 69.338, 49.9131
15250.000000, 69.553, 43.4442
15500.000000, 69.665, 38.7046
15750.000000, 70.092, 35.4494
16000.000000, 71.207, 31.2164
16250.000000, 72.982, 21.3055
16500.000000, 74.523, 2.0993
16750.000000, 74.542, -23.6488
17000.000000, 72.695, -47.1573
17250.000000, 69.839, -62.7931
17500.000000, 66.968, -71.2478
17750.000000, 64.571, -75.4597
18000.000000, 62.676, -77.2865
18250.000000, 61.222, -78.1314
18500.000000, 60.173, -79.2704
18750.000000, 59.455, -81.0965
19000.000000, 59.038, -83.6297
19250.000000, 58.928, -87.0623
19500.000000, 59.029, -92.1652
19750.000000, 59.273, -99.2126
20000.000000, 59.471, -105.7904
