* Measurement data measured by REW V5.31.3
* Source: Input device not selected, no input selected, L, volume: no control
* Format: 256k Log Swept Sine, 1 sweep at -12.0 dBFS with no timing reference
* Dated: Aug 25, 2024 1:55:31 AM
* REW Settings:
*  C-weighting compensation: Off
*  Target level: 75.0 dB
* Note: ; 
* Measurement: Studio 4 (Stock)
* Smoothing: 1/24 octave
* Frequency Step: 1/48 octave
* Start Frequency: 20.300 Hz
*
* Freq(Hz), SPL(dB), Phase(degrees)
20.299999, 80.807, 26.1471
20.600000, 80.928, 25.3250
20.900000, 81.015, 24.4543
21.200001, 81.046, 23.7527
21.400000, 81.041, 23.4295
21.799999, 80.992, 23.1078
22.000000, 80.958, 23.0490
22.400000, 80.886, 22.9240
22.700001, 80.834, 22.6756
23.000000, 80.789, 22.2141
23.299999, 80.760, 21.5204
23.600000, 80.756, 20.6051
24.000000, 80.805, 19.0890
24.299999, 80.879, 17.7916
24.700001, 81.002, 15.9979
25.000000, 81.090, 14.7394
25.400000, 81.175, 13.3708
25.799999, 81.213, 12.4754
26.200001, 81.208, 12.0218
26.500000, 81.179, 11.8713
26.900000, 81.111, 11.7650
27.200001, 81.038, 11.6817
27.600000, 80.918, 11.5270
28.000000, 80.791, 11.3284
28.500000, 80.657, 11.0141
29.000000, 80.579, 10.5555
29.500000, 80.554, 9.8578
30.000000, 80.568, 8.8555
30.400000, 80.600, 7.8077
30.700001, 80.631, 6.8788
31.100000, 80.679, 5.4873
31.500000, 80.729, 4.0100
32.000000, 80.789, 2.2459
32.500000, 80.835, 0.8129
33.000000, 80.852, -0.0850
33.500000, 80.836, -0.3473
34.000000, 80.807, -0.0788
34.500000, 80.795, 0.3394
35.000000, 80.802, 0.4156
35.500000, 80.800, -0.0881
36.000000, 80.769, -1.0074
36.500000, 80.727, -1.9842
37.000000, 80.714, -2.8002
37.500000, 80.746, -3.4968
38.200001, 80.809, -4.5364
38.700001, 80.806, -5.3561
39.500000, 80.679, -6.5088
40.000000, 80.561, -6.9836
40.599998, 80.451, -7.3495
41.200001, 80.412, -7.7231
41.799999, 80.427, -8.2899
42.500000, 80.448, -9.1353
43.099998, 80.435, -9.8185
43.700001, 80.393, -10.3257
44.400002, 80.336, -10.6854
45.000000, 80.311, -11.0049
45.500000, 80.301, -11.4850
46.200001, 80.252, -12.4975
46.799999, 80.156, -13.2896
47.500000, 80.058, -13.7131
48.200001, 80.056, -13.9825
48.700001, 80.083, -14.4317
49.400002, 80.074, -15.3364
50.000000, 80.012, -15.9569
50.799999, 79.950, -16.3096
51.500000, 79.965, -16.5895
52.200001, 79.988, -17.1738
53.000000, 79.944, -17.9833
53.799999, 79.839, -18.5780
54.500000, 79.764, -19.0082
55.200001, 79.720, -19.5638
56.000000, 79.673, -20.1681
57.000000, 79.627, -20.4885
58.000000, 79.597, -20.9759
59.000000, 79.511, -21.9017
60.000000, 79.424, -22.6307
60.799999, 79.381, -23.0103
61.500000, 79.338, -23.2251
62.200001, 79.289, -23.3614
63.000000, 79.240, -23.6089
64.000000, 79.178, -24.3396
65.000000, 79.087, -25.2482
66.000000, 79.001, -25.8395
67.000000, 78.940, -26.1551
68.000000, 78.865, -26.3785
69.000000, 78.775, -26.5565
70.000000, 78.713, -26.8478
71.000000, 78.658, -27.3262
72.000000, 78.581, -27.7027
73.000000, 78.517, -28.0770
74.000000, 78.469, -28.7237
75.000000, 78.422, -29.3609
76.199997, 78.367, -29.7408
77.500000, 78.294, -29.9057
78.800003, 78.206, -30.1298
80.000000, 78.120, -30.3224
81.199997, 78.036, -30.5148
82.500000, 77.972, -31.0563
83.800003, 77.903, -31.7122
85.000000, 77.810, -32.0865
86.199997, 77.709, -32.1952
87.500000, 77.651, -32.4141
88.500000, 77.605, -32.7533
90.000000, 77.508, -33.1292
91.199997, 77.441, -33.2974
92.500000, 77.373, -33.5710
93.800003, 77.286, -33.8627
95.000000, 77.225, -34.1005
96.199997, 77.169, -34.3119
97.500000, 77.090, -34.5090
98.800003, 76.999, -34.7585
100.000000, 76.932, -34.9270
101.500000, 76.878, -34.9219
103.000000, 76.817, -35.0333
104.400002, 76.743, -35.2448
106.000000, 76.660, -35.3806
107.500000, 76.566, -35.6188
109.000000, 76.484, -35.9160
110.599998, 76.422, -36.0920
112.000000, 76.361, -36.1657
113.800003, 76.274, -36.2570
115.000000, 76.216, -36.4051
117.199997, 76.127, -36.5478
118.000000, 76.105, -36.5376
120.599998, 76.007, -36.6742
122.000000, 75.952, -36.7730
124.099998, 75.899, -36.8521
125.000000, 75.865, -36.9217
126.500000, 75.796, -37.0568
128.000000, 75.737, -37.1310
131.500000, 75.622, -37.2324
132.000000, 75.607, -37.2182
134.000000, 75.543, -37.1612
136.000000, 75.471, -37.1773
138.000000, 75.400, -37.2792
140.000000, 75.337, -37.3238
143.000000, 75.245, -37.2333
145.000000, 75.194, -37.2299
147.500000, 75.121, -37.3248
150.000000, 75.050, -37.3139
152.500000, 74.987, -37.3517
155.000000, 74.933, -37.3326
157.500000, 74.892, -37.3149
160.000000, 74.844, -37.2863
162.500000, 74.786, -37.2841
165.000000, 74.735, -37.2578
167.500000, 74.694, -37.1464
170.000000, 74.646, -37.1041
172.500000, 74.595, -37.1203
175.000000, 74.556, -37.1066
177.500000, 74.518, -37.1083
180.000000, 74.480, -37.1240
182.500000, 74.446, -37.1024
185.000000, 74.413, -37.0318
187.500000, 74.380, -36.9861
190.000000, 74.346, -36.9985
192.500000, 74.310, -36.9965
195.000000, 74.280, -36.9864
197.500000, 74.251, -36.9946
200.000000, 74.220, -37.0046
203.000000, 74.183, -37.0184
206.000000, 74.150, -37.0055
209.000000, 74.119, -36.9552
212.000000, 74.092, -36.9071
214.000000, 74.076, -36.8935
218.000000, 74.042, -36.9548
220.000000, 74.029, -37.0114
224.000000, 74.013, -37.0957
227.000000, 73.992, -37.1227
230.000000, 73.967, -37.1373
233.000000, 73.946, -37.1223
236.000000, 73.930, -37.0784
240.000000, 73.914, -37.0742
243.000000, 73.908, -37.1163
247.000000, 73.902, -37.1917
250.000000, 73.892, -37.2754
254.000000, 73.885, -37.4069
258.000000, 73.881, -37.5288
262.000000, 73.881, -37.6095
265.000000, 73.880, -37.6577
269.000000, 73.871, -37.7505
272.000000, 73.864, -37.8247
276.000000, 73.854, -37.9227
280.000000, 73.841, -38.0478
285.000000, 73.829, -38.1920
290.000000, 73.822, -38.3498
295.000000, 73.805, -38.5320
300.000000, 73.792, -38.6343
304.000000, 73.788, -38.7480
307.000000, 73.782, -38.8712
311.000000, 73.768, -39.0452
315.000000, 73.754, -39.2434
320.000000, 73.737, -39.4695
325.000000, 73.729, -39.6438
330.000000, 73.723, -39.8014
335.000000, 73.715, -39.9728
340.000000, 73.709, -40.2177
345.000000, 73.709, -40.4787
350.000000, 73.708, -40.7545
355.000000, 73.704, -41.0067
360.000000, 73.708, -41.2367
365.000000, 73.716, -41.4442
370.000000, 73.713, -41.6520
375.000000, 73.704, -41.8587
382.000000, 73.701, -42.1750
387.000000, 73.700, -42.4029
395.000000, 73.693, -42.8165
400.000000, 73.687, -43.0612
406.000000, 73.678, -43.3597
412.000000, 73.666, -43.6496
418.000000, 73.662, -43.9585
425.000000, 73.651, -44.3091
431.000000, 73.637, -44.6018
437.000000, 73.625, -44.8865
444.000000, 73.609, -45.2222
450.000000, 73.592, -45.5187
455.000000, 73.579, -45.7562
462.000000, 73.567, -46.0941
468.000000, 73.555, -46.3744
475.000000, 73.544, -46.7033
482.000000, 73.543, -47.0683
487.000000, 73.548, -47.3167
494.000000, 73.554, -47.6688
500.000000, 73.549, -47.9830
508.000000, 73.540, -48.3873
515.000000, 73.537, -48.6964
522.000000, 73.532, -48.9968
530.000000, 73.519, -49.3639
538.000000, 73.507, -49.7658
545.000000, 73.501, -50.0980
552.000000, 73.496, -50.4015
560.000000, 73.488, -50.7475
570.000000, 73.479, -51.2177
580.000000, 73.474, -51.6843
590.000000, 73.465, -52.1280
600.000000, 73.457, -52.5699
608.000000, 73.452, -52.9156
615.000000, 73.445, -53.2113
622.000000, 73.438, -53.4986
630.000000, 73.434, -53.8069
640.000000, 73.431, -54.1949
650.000000, 73.427, -54.5691
660.000000, 73.426, -54.9335
670.000000, 73.427, -55.3499
680.000000, 73.424, -55.7188
690.000000, 73.423, -56.0535
700.000000, 73.422, -56.3568
710.000000, 73.419, -56.6687
720.000000, 73.412, -56.9774
730.000000, 73.409, -57.3003
740.000000, 73.412, -57.6029
750.000000, 73.418, -57.8654
762.000000, 73.430, -58.2027
775.000000, 73.444, -58.5944
788.000000, 73.459, -58.9164
800.000000, 73.472, -59.1935
812.000000, 73.495, -59.4885
825.000000, 73.530, -59.7951
838.000000, 73.567, -60.0726
850.000000, 73.604, -60.3605
862.000000, 73.643, -60.6555
875.000000, 73.687, -60.9211
885.000000, 73.723, -61.1524
900.000000, 73.788, -61.5148
912.000000, 73.845, -61.8112
925.000000, 73.912, -62.1495
938.000000, 73.982, -62.4976
950.000000, 74.048, -62.8307
962.000000, 74.121, -63.1557
975.000000, 74.203, -63.5212
988.000000, 74.280, -63.9468
1000.000000, 74.354, -64.3753
1015.000000, 74.453, -64.8474
1030.000000, 74.555, -65.3638
1044.000000, 74.650, -65.9357
1060.000000, 74.763, -66.6631
1075.000000, 74.870, -67.3497
1090.000000, 74.982, -68.0796
1106.000000, 75.104, -68.9165
1120.000000, 75.211, -69.6856
1138.000000, 75.349, -70.7090
1150.000000, 75.437, -71.4074
1172.000000, 75.585, -72.7738
1180.000000, 75.635, -73.2883
1206.000000, 75.796, -74.9742
1220.000000, 75.883, -75.8897
1241.000000, 76.010, -77.3084
1250.000000, 76.062, -77.9278
1265.000000, 76.144, -78.9633
1280.000000, 76.222, -80.0021
1315.000000, 76.391, -82.4610
1320.000000, 76.412, -82.8054
1340.000000, 76.494, -84.1613
1360.000000, 76.571, -85.5085
1380.000000, 76.646, -86.8682
1400.000000, 76.720, -88.2357
1430.000000, 76.832, -90.2461
1450.000000, 76.906, -91.5964
1475.000000, 76.997, -93.2554
1500.000000, 77.086, -94.8670
1525.000000, 77.167, -96.4619
1550.000000, 77.239, -98.0417
1575.000000, 77.311, -99.5988
1600.000000, 77.383, -101.1060
1625.000000, 77.460, -102.6081
1650.000000, 77.542, -104.1001
1675.000000, 77.629, -105.5979
1700.000000, 77.717, -107.0649
1725.000000, 77.803, -108.5127
1750.000000, 77.887, -109.9181
1775.000000, 77.973, -111.3112
1800.000000, 78.063, -112.7044
1825.000000, 78.160, -114.1173
1850.000000, 78.263, -115.5413
1875.000000, 78.370, -116.9666
1900.000000, 78.482, -118.4209
1925.000000, 78.597, -119.8941
1950.000000, 78.709, -121.3908
1975.000000, 78.814, -122.8800
2000.000000, 78.916, -124.3069
2030.000000, 79.047, -125.9534
2060.000000, 79.193, -127.6342
2090.000000, 79.351, -129.3994
2120.000000, 79.513, -131.2375
2140.000000, 79.621, -132.4899
2180.000000, 79.842, -135.0542
2200.000000, 79.954, -136.3463
2240.000000, 80.181, -138.9525
2270.000000, 80.348, -140.9603
2300.000000, 80.510, -143.0012
2330.000000, 80.668, -145.0785
2360.000000, 80.828, -147.2039
2400.000000, 81.045, -150.1264
2430.000000, 81.209, -152.3876
2470.000000, 81.430, -155.4747
2500.000000, 81.600, -157.8655
2540.000000, 81.831, -161.1606
2580.000000, 82.056, -164.5635
2620.000000, 82.269, -168.0715
2650.000000, 82.416, -170.7794
2690.000000, 82.594, -174.4900
2720.000000, 82.716, -177.3366
2760.000000, 82.864, 178.7731
2800.000000, 82.996, 174.7715
2850.000000, 83.138, 169.6649
2900.000000, 83.245, 164.4757
2950.000000, 83.308, 159.2216
3000.000000, 83.323, 153.9674
3040.000000, 83.302, 149.8151
3070.000000, 83.269, 146.7259
3110.000000, 83.206, 142.6504
3150.000000, 83.122, 138.6606
3200.000000, 82.987, 133.8414
3250.000000, 82.822, 129.2273
3300.000000, 82.634, 124.8442
3350.000000, 82.430, 120.6913
3400.000000, 82.217, 116.7490
3450.000000, 81.999, 112.9971
3500.000000, 81.779, 109.4270
3550.000000, 81.560, 106.0325
3600.000000, 81.345, 102.8247
3650.000000, 81.135, 99.7734
3700.000000, 80.934, 96.8685
3750.000000, 80.742, 94.0971
3820.000000, 80.489, 90.4187
3870.000000, 80.318, 87.9328
3950.000000, 80.071, 84.1699
4000.000000, 79.937, 81.9181
4060.000000, 79.794, 79.3109
4120.000000, 79.665, 76.8012
4180.000000, 79.556, 74.3558
4250.000000, 79.457, 71.5677
4310.000000, 79.397, 69.1970
4370.000000, 79.357, 66.8323
4440.000000, 79.331, 64.0694
4500.000000, 79.325, 61.6629
4550.000000, 79.331, 59.6168
4620.000000, 79.356, 56.6791
4680.000000, 79.389, 54.0810
4750.000000, 79.440, 50.9305
4820.000000, 79.501, 47.6353
4870.000000, 79.549, 45.1824
4940.000000, 79.617, 41.5960
5000.000000, 79.675, 38.3501
5080.000000, 79.742, 33.8085
5150.000000, 79.777, 29.6608
5220.000000, 79.779, 25.3599
5300.000000, 79.739, 20.2753
5380.000000, 79.651, 15.0736
5450.000000, 79.531, 10.5188
5520.000000, 79.361, 6.0136
5600.000000, 79.110, 1.0140
5700.000000, 78.725, -4.8842
5800.000000, 78.277, -10.2704
5900.000000, 77.790, -15.0682
6000.000000, 77.286, -19.2231
6080.000000, 76.880, -22.0775
6150.000000, 76.529, -24.2441
6220.000000, 76.190, -26.1460
6300.000000, 75.825, -28.0087
6400.000000, 75.412, -29.9247
6500.000000, 75.051, -31.4517
6600.000000, 74.754, -32.6445
6700.000000, 74.527, -33.6124
6800.000000, 74.368, -34.4271
6900.000000, 74.274, -35.1537
7000.000000, 74.249, -35.8322
7100.000000, 74.288, -36.5416
7200.000000, 74.393, -37.3726
7300.000000, 74.564, -38.3922
7400.000000, 74.792, -39.6440
7500.000000, 75.070, -41.1312
7620.000000, 75.472, -43.2147
7750.000000, 76.002, -46.0507
7880.000000, 76.586, -49.8954
8000.000000, 77.116, -54.3129
8120.000000, 77.638, -59.4026
8250.000000, 78.178, -65.7792
8380.000000, 78.647, -73.1770
8500.000000, 78.967, -80.8315
8620.000000, 79.137, -89.0416
8750.000000, 79.124, -98.1418
8850.000000, 78.977, -104.9362
9000.000000, 78.588, -114.3319
9120.000000, 78.200, -121.0997
9250.000000, 77.741, -127.8943
9380.000000, 77.216, -134.2303
9500.000000, 76.656, -139.4572
9620.000000, 76.064, -143.7877
9750.000000, 75.462, -147.4951
9880.000000, 74.950, -150.5718
10000.000000, 74.544, -153.2395
10150.000000, 74.060, -156.5167
10300.000000, 73.569, -159.2015
10440.000000, 73.185, -160.9106
10600.000000, 72.885, -162.6389
10750.000000, 72.700, -164.4436
10900.000000, 72.568, -166.4387
11060.000000, 72.444, -168.6849
11200.000000, 72.336, -170.5345
11380.000000, 72.240, -172.4509
11500.000000, 72.235, -173.4984
11720.000000, 72.393, -175.5514
11800.000000, 72.500, -176.4559
12060.000000, 72.972, 179.8227
12200.000000, 73.280, 177.1570
12410.000000, 73.760, 172.1774
12500.000000, 73.956, 169.7003
12650.000000, 74.251, 165.1711
12800.000000, 74.494, 160.2224
13150.000000, 74.820, 147.6360
13200.000000, 74.840, 145.7837
13400.000000, 74.855, 138.4071
13600.000000, 74.775, 131.1864
13800.000000, 74.621, 124.2194
14000.000000, 74.421, 117.5383
14300.000000, 74.101, 108.1057
14500.000000, 73.909, 102.0406
14750.000000, 73.674, 94.2595
15000.000000, 73.364, 86.0965
15250.000000, 72.903, 78.0593
15500.000000, 72.306, 71.0862
15750.000000, 71.713, 65.8311
16000.000000, 71.286, 62.0096
16250.000000, 71.114, 58.7081
16500.000000, 71.203, 55.0105
16750.000000, 71.492, 50.2256
17000.000000, 71.878, 43.8925
17250.000000, 72.258, 35.8348
17500.000000, 72.514, 26.0870
17750.000000, 72.489, 15.1479
18000.000000, 72.070, 4.1561
18250.000000, 71.246, -4.8690
18500.000000, 70.434, -8.4501
18750.000000, 70.830, -9.4615
19000.000000, 71.738, -20.4340
19250.000000, 71.574, -37.3203
19500.000000, 70.494, -52.3640
19750.000000, 69.160, -64.3608
20000.000000, 68.240, -74.4930
