* Measurement data measured by REW V5.31.3
* Source: Input device not selected, no input selected, L, volume: no control
* Format: 256k Log Swept Sine, 1 sweep at -12.0 dBFS with no timing reference
* Dated: Oct 17, 2024 10:11:21 PM
* REW Settings:
*  C-weighting compensation: Off
*  Target level: 75.0 dB
* Note: 
* Measurement: Studio 4 (Azla Max M) L
* Smoothing: 1/24 octave
* Frequency Step: 1/48 octave
* Start Frequency: 20.300 Hz
*
* Freq(Hz), SPL(dB), Phase(degrees)
20.299999, 78.774, 34.3268
20.600000, 78.803, 33.6695
20.900000, 78.833, 32.9667
21.200001, 78.860, 32.2791
21.400000, 78.878, 31.8338
21.799999, 78.911, 30.9783
22.000000, 78.927, 30.5680
22.400000, 78.955, 29.7781
22.700001, 78.973, 29.2052
23.000000, 78.989, 28.6400
23.299999, 79.004, 28.0745
23.600000, 79.018, 27.5029
24.000000, 79.036, 26.7289
24.299999, 79.048, 26.1434
24.700001, 79.065, 25.3673
25.000000, 79.077, 24.7954
25.400000, 79.091, 24.0522
25.799999, 79.104, 23.3312
26.200001, 79.115, 22.6300
26.500000, 79.121, 22.1163
26.900000, 79.127, 21.4484
27.200001, 79.131, 20.9601
27.600000, 79.137, 20.3228
28.000000, 79.144, 19.6948
28.500000, 79.153, 18.9156
29.000000, 79.157, 18.1467
29.500000, 79.156, 17.4027
30.000000, 79.151, 16.6882
30.400000, 79.148, 16.1283
30.700001, 79.145, 15.7084
31.100000, 79.141, 15.1457
31.500000, 79.136, 14.5859
32.000000, 79.126, 13.9109
32.500000, 79.117, 13.2806
33.000000, 79.109, 12.6886
33.500000, 79.101, 12.1111
34.000000, 79.092, 11.5315
34.500000, 79.077, 10.9506
35.000000, 79.060, 10.3745
35.500000, 79.043, 9.8017
36.000000, 79.030, 9.2270
36.500000, 79.016, 8.6579
37.000000, 79.000, 8.1182
37.500000, 78.979, 7.6297
38.200001, 78.947, 7.0186
38.700001, 78.926, 6.5884
39.500000, 78.892, 5.8467
40.000000, 78.870, 5.3678
40.599998, 78.843, 4.8223
41.200001, 78.816, 4.3224
41.799999, 78.787, 3.8470
42.500000, 78.748, 3.2916
43.099998, 78.714, 2.8077
43.700001, 78.684, 2.3190
44.400002, 78.652, 1.7483
45.000000, 78.623, 1.2719
45.500000, 78.594, 0.8968
46.200001, 78.548, 0.4168
46.799999, 78.509, 0.0400
47.500000, 78.469, -0.3928
48.200001, 78.436, -0.8519
48.700001, 78.412, -1.1936
49.400002, 78.374, -1.6537
50.000000, 78.338, -1.9980
50.799999, 78.289, -2.3910
51.500000, 78.246, -2.7307
52.200001, 78.199, -3.1041
53.000000, 78.142, -3.5379
53.799999, 78.088, -3.9314
54.500000, 78.046, -4.2581
55.200001, 78.001, -4.5927
56.000000, 77.945, -4.9750
57.000000, 77.882, -5.4483
58.000000, 77.821, -5.8774
59.000000, 77.755, -6.1676
60.000000, 77.696, -6.4851
60.799999, 77.644, -6.8248
61.500000, 77.594, -7.0919
62.200001, 77.545, -7.3096
63.000000, 77.490, -7.5684
64.000000, 77.419, -7.9305
65.000000, 77.354, -8.2350
66.000000, 77.293, -8.4941
67.000000, 77.226, -8.7526
68.000000, 77.161, -9.0024
69.000000, 77.101, -9.2292
70.000000, 77.031, -9.4157
71.000000, 76.955, -9.5959
72.000000, 76.882, -9.7917
73.000000, 76.817, -9.9426
74.000000, 76.757, -10.0775
75.000000, 76.696, -10.2494
76.199997, 76.625, -10.4118
77.500000, 76.545, -10.5230
78.800003, 76.460, -10.6831
80.000000, 76.383, -10.8399
81.199997, 76.309, -10.9146
82.500000, 76.225, -10.9809
83.800003, 76.147, -11.0644
85.000000, 76.078, -11.1582
86.199997, 76.008, -11.2464
87.500000, 75.935, -11.3034
88.500000, 75.871, -11.3063
90.000000, 75.768, -11.3342
91.199997, 75.697, -11.3420
92.500000, 75.633, -11.3016
93.800003, 75.565, -11.2856
95.000000, 75.497, -11.2718
96.199997, 75.431, -11.2337
97.500000, 75.366, -11.1857
98.800003, 75.300, -11.1242
100.000000, 75.236, -11.0350
101.500000, 75.159, -10.9152
103.000000, 75.087, -10.7977
104.400002, 75.021, -10.6995
106.000000, 74.942, -10.6158
107.500000, 74.867, -10.4859
109.000000, 74.796, -10.2904
110.599998, 74.726, -10.0810
112.000000, 74.664, -9.9057
113.800003, 74.574, -9.7169
115.000000, 74.517, -9.5837
117.199997, 74.431, -9.3315
118.000000, 74.401, -9.2227
120.599998, 74.291, -8.8633
122.000000, 74.241, -8.6341
124.099998, 74.170, -8.2795
125.000000, 74.131, -8.1334
126.500000, 74.062, -7.8957
128.000000, 73.998, -7.6780
131.500000, 73.885, -7.0919
132.000000, 73.869, -7.0050
134.000000, 73.806, -6.6706
136.000000, 73.740, -6.3555
138.000000, 73.673, -6.0377
140.000000, 73.618, -5.6680
143.000000, 73.529, -5.1352
145.000000, 73.474, -4.8317
147.500000, 73.411, -4.3377
150.000000, 73.343, -3.8764
152.500000, 73.278, -3.4137
155.000000, 73.214, -2.9669
157.500000, 73.154, -2.5159
160.000000, 73.108, -2.0596
162.500000, 73.063, -1.4699
165.000000, 73.008, -0.8854
167.500000, 72.958, -0.4493
170.000000, 72.919, -0.0499
172.500000, 72.877, 0.4138
175.000000, 72.830, 0.9406
177.500000, 72.789, 1.4188
180.000000, 72.754, 1.8183
182.500000, 72.723, 2.2617
185.000000, 72.690, 2.7789
187.500000, 72.652, 3.2579
190.000000, 72.617, 3.7230
192.500000, 72.589, 4.1738
195.000000, 72.564, 4.6478
197.500000, 72.541, 5.0814
200.000000, 72.518, 5.4618
203.000000, 72.494, 5.9960
206.000000, 72.467, 6.5757
209.000000, 72.440, 7.0762
212.000000, 72.414, 7.5506
214.000000, 72.397, 7.9032
218.000000, 72.367, 8.6243
220.000000, 72.355, 8.9590
224.000000, 72.334, 9.5824
227.000000, 72.316, 10.0378
230.000000, 72.298, 10.4685
233.000000, 72.290, 10.9588
236.000000, 72.276, 11.4921
240.000000, 72.251, 12.1510
243.000000, 72.237, 12.6091
247.000000, 72.216, 13.1564
250.000000, 72.202, 13.5860
254.000000, 72.189, 14.1822
258.000000, 72.180, 14.8231
262.000000, 72.164, 15.4542
265.000000, 72.160, 15.8903
269.000000, 72.154, 16.3625
272.000000, 72.145, 16.7531
276.000000, 72.133, 17.3596
280.000000, 72.127, 17.8954
285.000000, 72.121, 18.5693
290.000000, 72.110, 19.2681
295.000000, 72.103, 19.9209
300.000000, 72.097, 20.5289
304.000000, 72.097, 21.0285
307.000000, 72.093, 21.3953
311.000000, 72.085, 21.8421
315.000000, 72.081, 22.2484
320.000000, 72.077, 22.8539
325.000000, 72.072, 23.5099
330.000000, 72.066, 24.1218
335.000000, 72.056, 24.7132
340.000000, 72.051, 25.2499
345.000000, 72.054, 25.7613
350.000000, 72.057, 26.3197
355.000000, 72.058, 26.8651
360.000000, 72.053, 27.3851
365.000000, 72.048, 27.8958
370.000000, 72.045, 28.4418
375.000000, 72.044, 28.9671
382.000000, 72.048, 29.7175
387.000000, 72.051, 30.2338
395.000000, 72.042, 31.0466
400.000000, 72.036, 31.5521
406.000000, 72.031, 32.1465
412.000000, 72.029, 32.7003
418.000000, 72.027, 33.3218
425.000000, 72.019, 34.0374
431.000000, 72.014, 34.5874
437.000000, 72.015, 35.1264
444.000000, 72.024, 35.7900
450.000000, 72.024, 36.3693
455.000000, 72.016, 36.8773
462.000000, 72.002, 37.5415
468.000000, 71.995, 38.0965
475.000000, 71.986, 38.7477
482.000000, 71.983, 39.3754
487.000000, 71.981, 39.8440
494.000000, 71.978, 40.5010
500.000000, 71.977, 41.0404
508.000000, 71.977, 41.7765
515.000000, 71.979, 42.4381
522.000000, 71.978, 43.1214
530.000000, 71.973, 43.8433
538.000000, 71.967, 44.5710
545.000000, 71.963, 45.2382
552.000000, 71.960, 45.8842
560.000000, 71.952, 46.6271
570.000000, 71.942, 47.5024
580.000000, 71.942, 48.4049
590.000000, 71.937, 49.2855
600.000000, 71.930, 50.1943
608.000000, 71.926, 50.9475
615.000000, 71.923, 51.5899
622.000000, 71.918, 52.2110
630.000000, 71.912, 52.9364
640.000000, 71.905, 53.8452
650.000000, 71.902, 54.7661
660.000000, 71.896, 55.6975
670.000000, 71.895, 56.6475
680.000000, 71.894, 57.5875
690.000000, 71.892, 58.5149
700.000000, 71.891, 59.4483
710.000000, 71.892, 60.4724
720.000000, 71.898, 61.4903
730.000000, 71.902, 62.4244
740.000000, 71.908, 63.3374
750.000000, 71.914, 64.3007
762.000000, 71.925, 65.4629
775.000000, 71.940, 66.7662
788.000000, 71.968, 68.0668
800.000000, 71.991, 69.2895
812.000000, 72.011, 70.5171
825.000000, 72.036, 71.7858
838.000000, 72.063, 72.9957
850.000000, 72.095, 74.1491
862.000000, 72.141, 75.3416
875.000000, 72.192, 76.6628
885.000000, 72.229, 77.6369
900.000000, 72.290, 79.0680
912.000000, 72.343, 80.2029
925.000000, 72.410, 81.4591
938.000000, 72.480, 82.6880
950.000000, 72.546, 83.7836
962.000000, 72.619, 84.8365
975.000000, 72.702, 85.9663
988.000000, 72.792, 87.0877
1000.000000, 72.883, 88.1170
1015.000000, 72.986, 89.2705
1030.000000, 73.084, 90.4050
1044.000000, 73.183, 91.3957
1060.000000, 73.307, 92.4828
1075.000000, 73.425, 93.4899
1090.000000, 73.537, 94.4483
1106.000000, 73.656, 95.3710
1120.000000, 73.759, 96.1515
1138.000000, 73.889, 97.1161
1150.000000, 73.978, 97.7178
1172.000000, 74.132, 98.8069
1180.000000, 74.184, 99.1892
1206.000000, 74.344, 100.3422
1220.000000, 74.427, 100.9167
1241.000000, 74.549, 101.7434
1250.000000, 74.600, 102.0862
1265.000000, 74.679, 102.6606
1280.000000, 74.753, 103.2359
1315.000000, 74.920, 104.5645
1320.000000, 74.942, 104.7520
1340.000000, 75.032, 105.5030
1360.000000, 75.117, 106.2518
1380.000000, 75.199, 106.9929
1400.000000, 75.283, 107.7118
1430.000000, 75.403, 108.7461
1450.000000, 75.470, 109.4523
1475.000000, 75.551, 110.3455
1500.000000, 75.631, 111.2451
1525.000000, 75.710, 112.1850
1550.000000, 75.791, 113.1589
1575.000000, 75.870, 114.1191
1600.000000, 75.948, 115.0997
1625.000000, 76.027, 116.0833
1650.000000, 76.112, 117.0532
1675.000000, 76.195, 118.0098
1700.000000, 76.282, 118.9940
1725.000000, 76.372, 119.9780
1750.000000, 76.464, 120.9373
1775.000000, 76.561, 121.8885
1800.000000, 76.657, 122.8534
1825.000000, 76.755, 123.8153
1850.000000, 76.857, 124.7394
1875.000000, 76.963, 125.6391
1900.000000, 77.075, 126.5285
1925.000000, 77.187, 127.3912
1950.000000, 77.298, 128.2179
1975.000000, 77.405, 129.0115
2000.000000, 77.514, 129.8179
2030.000000, 77.658, 130.7815
2060.000000, 77.807, 131.7002
2090.000000, 77.960, 132.5839
2120.000000, 78.113, 133.4412
2140.000000, 78.219, 133.9797
2180.000000, 78.436, 134.9624
2200.000000, 78.545, 135.4250
2240.000000, 78.766, 136.2912
2270.000000, 78.936, 136.8526
2300.000000, 79.106, 137.3449
2330.000000, 79.276, 137.7940
2360.000000, 79.448, 138.1741
2400.000000, 79.675, 138.5616
2430.000000, 79.846, 138.7914
2470.000000, 80.071, 138.9587
2500.000000, 80.238, 138.9909
2540.000000, 80.452, 138.9551
2580.000000, 80.658, 138.7728
2620.000000, 80.855, 138.4411
2650.000000, 80.994, 138.1277
2690.000000, 81.164, 137.6011
2720.000000, 81.282, 137.1251
2760.000000, 81.421, 136.3949
2800.000000, 81.538, 135.5608
2850.000000, 81.653, 134.4161
2900.000000, 81.730, 133.1869
2950.000000, 81.763, 131.9256
3000.000000, 81.753, 130.6594
3040.000000, 81.715, 129.6883
3070.000000, 81.669, 128.9949
3110.000000, 81.590, 128.1338
3150.000000, 81.492, 127.3690
3200.000000, 81.345, 126.5550
3250.000000, 81.178, 125.9354
3300.000000, 80.998, 125.5109
3350.000000, 80.812, 125.2613
3400.000000, 80.624, 125.1723
3450.000000, 80.431, 125.2344
3500.000000, 80.244, 125.4302
3550.000000, 80.060, 125.7429
3600.000000, 79.876, 126.1667
3650.000000, 79.694, 126.7124
3700.000000, 79.518, 127.3743
3750.000000, 79.351, 128.1352
3820.000000, 79.137, 129.3467
3870.000000, 78.998, 130.3121
3950.000000, 78.798, 131.9968
4000.000000, 78.689, 133.0924
4060.000000, 78.575, 134.4330
4120.000000, 78.484, 135.8202
4180.000000, 78.413, 137.2116
4250.000000, 78.353, 138.8253
4310.000000, 78.320, 140.2140
4370.000000, 78.308, 141.5421
4440.000000, 78.316, 143.0034
4500.000000, 78.342, 144.1735
4550.000000, 78.374, 145.0660
4620.000000, 78.429, 146.1686
4680.000000, 78.488, 146.9839
4750.000000, 78.565, 147.7531
4820.000000, 78.647, 148.3030
4870.000000, 78.704, 148.5688
4940.000000, 78.776, 148.7293
5000.000000, 78.827, 148.6733
5080.000000, 78.869, 148.3639
5150.000000, 78.873, 147.8642
5220.000000, 78.838, 147.2196
5300.000000, 78.749, 146.3679
5380.000000, 78.599, 145.4877
5450.000000, 78.417, 144.7740
5520.000000, 78.192, 144.1650
5600.000000, 77.887, 143.6765
5700.000000, 77.448, 143.4840
5800.000000, 76.959, 143.8405
5900.000000, 76.452, 144.7806
6000.000000, 75.950, 146.2746
6080.000000, 75.564, 147.8861
6150.000000, 75.241, 149.5616
6220.000000, 74.939, 151.4428
6300.000000, 74.628, 153.8216
6400.000000, 74.293, 157.0794
6500.000000, 74.029, 160.5477
6600.000000, 73.837, 164.1236
6700.000000, 73.711, 167.7381
6800.000000, 73.650, 171.2870
6900.000000, 73.654, 174.7288
7000.000000, 73.724, 178.0610
7100.000000, 73.855, -178.8737
7200.000000, 74.043, -176.1629
7300.000000, 74.274, -173.8562
7400.000000, 74.533, -171.9876
7500.000000, 74.814, -170.5585
7620.000000, 75.185, -169.4538
7750.000000, 75.608, -169.2948
7880.000000, 75.963, -170.3306
8000.000000, 76.180, -172.0226
8120.000000, 76.281, -174.2060
8250.000000, 76.245, -176.8857
8380.000000, 76.058, -179.6059
8500.000000, 75.749, 178.0914
8620.000000, 75.321, 176.2468
8750.000000, 74.756, 175.0304
8850.000000, 74.282, 174.7790
9000.000000, 73.596, 175.6511
9120.000000, 73.168, 177.1887
9250.000000, 72.875, 178.5685
9380.000000, 72.599, 178.8136
9500.000000, 72.205, 178.7125
9620.000000, 71.700, 179.2025
9750.000000, 71.136, -179.3079
9880.000000, 70.627, -177.1072
10000.000000, 70.213, -174.8679
10150.000000, 69.736, -171.8828
10300.000000, 69.301, -168.2733
10440.000000, 68.995, -164.5135
10600.000000, 68.754, -160.2940
10750.000000, 68.604, -156.4157
10900.000000, 68.526, -152.6383
11060.000000, 68.533, -148.7918
11200.000000, 68.600, -145.6979
11380.000000, 68.739, -142.0845
11500.000000, 68.856, -139.9587
11720.000000, 69.109, -136.5500
11800.000000, 69.214, -135.4496
12060.000000, 69.612, -132.5449
12200.000000, 69.846, -131.5423
12410.000000, 70.191, -130.6101
12500.000000, 70.334, -130.3800
12650.000000, 70.561, -130.2411
12800.000000, 70.777, -130.3841
13150.000000, 71.238, -131.8900
13200.000000, 71.295, -132.2592
13400.000000, 71.493, -134.1403
13600.000000, 71.624, -136.5215
13800.000000, 71.670, -139.1188
14000.000000, 71.657, -141.8882
14300.000000, 71.565, -146.5305
14500.000000, 71.459, -150.2813
14750.000000, 71.147, -155.9340
15000.000000, 70.461, -161.8085
15250.000000, 69.388, -165.6704
15500.000000, 68.258, -165.8967
15750.000000, 67.506, -163.5182
16000.000000, 67.241, -161.0200
16250.000000, 67.325, -160.0686
16500.000000, 67.566, -161.2955
16750.000000, 67.790, -164.6741
17000.000000, 67.864, -169.8096
17250.000000, 67.690, -176.0866
17500.000000, 67.204, 177.3729
17750.000000, 66.405, 171.5756
18000.000000, 65.340, 167.4763
18250.000000, 64.161, 166.3964
18500.000000, 63.321, 169.6959
18750.000000, 63.635, 172.4914
19000.000000, 64.212, 166.3730
19250.000000, 63.838, 156.2345
19500.000000, 62.750, 148.0834
19750.000000, 61.544, 142.2137
20000.000000, 60.757, 138.2594
