* Measurement data measured by REW V5.31.3
* Source: Input device not selected, no input selected, L, volume: no control
* Format: 256k Log Swept Sine, 1 sweep at -12.0 dBFS with no timing reference
* Dated: Aug 25, 2024 1:48:48 AM
* REW Settings:
*  C-weighting compensation: Off
*  Target level: 75.0 dB
* Note: ; 
* Measurement: Studio 4 (Spinfit)
* Smoothing: 1/24 octave
* Frequency Step: 1/48 octave
* Start Frequency: 20.300 Hz
*
* Freq(Hz), SPL(dB), Phase(degrees)
20.299999, 80.354, 25.6086
20.600000, 80.375, 24.9459
20.900000, 80.397, 24.2391
21.200001, 80.418, 23.5325
21.400000, 80.434, 23.0594
21.799999, 80.465, 22.1049
22.000000, 80.481, 21.6264
22.400000, 80.511, 20.6813
22.700001, 80.530, 19.9957
23.000000, 80.548, 19.3368
23.299999, 80.563, 18.7033
23.600000, 80.577, 18.0880
24.000000, 80.592, 17.2795
24.299999, 80.600, 16.6734
24.700001, 80.608, 15.8624
25.000000, 80.611, 15.2554
25.400000, 80.614, 14.4542
25.799999, 80.618, 13.6646
26.200001, 80.625, 12.8829
26.500000, 80.632, 12.2994
26.900000, 80.640, 11.5264
27.200001, 80.645, 10.9551
27.600000, 80.649, 10.2141
28.000000, 80.650, 9.5055
28.500000, 80.647, 8.6654
29.000000, 80.642, 7.8559
29.500000, 80.635, 7.0437
30.000000, 80.624, 6.2080
30.400000, 80.612, 5.5289
30.700001, 80.602, 5.0259
31.100000, 80.588, 4.3804
31.500000, 80.577, 3.7748
32.000000, 80.572, 3.0667
32.500000, 80.574, 2.3817
33.000000, 80.575, 1.6918
33.500000, 80.568, 0.9948
34.000000, 80.553, 0.3006
34.500000, 80.533, -0.3890
35.000000, 80.512, -1.0799
35.500000, 80.490, -1.7680
36.000000, 80.468, -2.4359
36.500000, 80.446, -3.0688
37.000000, 80.424, -3.6697
37.500000, 80.401, -4.2566
38.200001, 80.366, -5.0835
38.700001, 80.338, -5.6793
39.500000, 80.293, -6.6167
40.000000, 80.267, -7.1824
40.599998, 80.237, -7.8394
41.200001, 80.206, -8.4693
41.799999, 80.172, -9.0657
42.500000, 80.129, -9.7333
43.099998, 80.092, -10.3127
43.700001, 80.052, -10.9118
44.400002, 80.007, -11.6187
45.000000, 79.972, -12.2153
45.500000, 79.943, -12.6947
46.200001, 79.900, -13.3106
46.799999, 79.860, -13.7835
47.500000, 79.811, -14.3300
48.200001, 79.754, -14.9267
48.700001, 79.711, -15.3703
49.400002, 79.653, -15.9759
50.000000, 79.611, -16.4705
50.799999, 79.559, -17.0989
51.500000, 79.511, -17.6127
52.200001, 79.457, -18.0969
53.000000, 79.394, -18.6412
53.799999, 79.335, -19.2118
54.500000, 79.281, -19.7371
55.200001, 79.221, -20.2379
56.000000, 79.148, -20.7365
57.000000, 79.061, -21.3311
58.000000, 78.971, -21.9480
59.000000, 78.888, -22.5265
60.000000, 78.808, -23.0761
60.799999, 78.733, -23.4569
61.500000, 78.662, -23.7595
62.200001, 78.589, -24.0910
63.000000, 78.508, -24.5166
64.000000, 78.416, -25.0471
65.000000, 78.303, -25.3535
66.000000, 78.172, -25.2296
67.000000, 78.070, -25.3026
68.000000, 77.940, -25.9662
69.000000, 77.780, -26.4956
70.000000, 77.653, -26.6656
71.000000, 77.521, -26.7620
72.000000, 77.347, -26.6488
73.000000, 77.165, -26.2535
74.000000, 76.987, -25.6491
75.000000, 76.807, -24.6812
76.199997, 76.625, -22.6615
77.500000, 76.613, -19.3690
78.800003, 76.952, -16.1387
80.000000, 77.497, -14.8209
81.199997, 78.031, -15.6124
82.500000, 78.428, -18.1380
83.800003, 78.607, -21.1541
85.000000, 78.627, -23.6077
86.199997, 78.570, -25.6046
87.500000, 78.464, -27.3373
88.500000, 78.359, -28.3674
90.000000, 78.197, -29.5077
91.199997, 78.073, -30.2580
92.500000, 77.949, -31.0036
93.800003, 77.844, -31.5215
95.000000, 77.764, -31.6314
96.199997, 77.676, -31.8882
97.500000, 77.553, -32.5664
98.800003, 77.447, -33.2597
100.000000, 77.369, -33.6908
101.500000, 77.278, -34.0174
103.000000, 77.183, -34.3771
104.400002, 77.086, -34.7203
106.000000, 76.980, -35.0677
107.500000, 76.890, -35.3673
109.000000, 76.798, -35.6503
110.599998, 76.696, -35.8546
112.000000, 76.611, -36.0328
113.800003, 76.512, -36.2724
115.000000, 76.450, -36.4245
117.199997, 76.334, -36.6489
118.000000, 76.292, -36.6891
120.599998, 76.158, -36.8580
122.000000, 76.089, -36.9926
124.099998, 75.989, -37.1139
125.000000, 75.945, -37.1247
126.500000, 75.872, -37.1372
128.000000, 75.800, -37.1702
131.500000, 75.658, -37.2440
132.000000, 75.640, -37.2429
134.000000, 75.566, -37.2206
136.000000, 75.503, -37.1883
138.000000, 75.447, -37.0998
140.000000, 75.357, -37.0150
143.000000, 75.276, -36.8579
145.000000, 75.249, -36.9114
147.500000, 75.203, -37.1147
150.000000, 75.142, -37.2559
152.500000, 75.071, -37.3095
155.000000, 75.001, -37.3441
157.500000, 74.932, -37.4019
160.000000, 74.872, -37.5487
162.500000, 74.816, -37.5360
165.000000, 74.746, -37.4762
167.500000, 74.681, -37.4005
170.000000, 74.615, -37.4069
172.500000, 74.563, -37.4655
175.000000, 74.518, -37.4675
177.500000, 74.471, -37.4229
180.000000, 74.424, -37.4241
182.500000, 74.380, -37.4571
185.000000, 74.340, -37.3765
187.500000, 74.302, -37.2654
190.000000, 74.259, -37.2214
192.500000, 74.216, -37.2526
195.000000, 74.178, -37.2920
197.500000, 74.139, -37.1927
200.000000, 74.101, -37.0509
203.000000, 74.055, -36.9327
206.000000, 74.013, -36.7979
209.000000, 73.977, -36.6106
212.000000, 73.948, -36.3286
214.000000, 73.939, -36.1497
218.000000, 73.958, -35.9021
220.000000, 73.975, -35.8538
224.000000, 74.006, -35.9403
227.000000, 74.019, -36.1525
230.000000, 74.022, -36.4227
233.000000, 74.010, -36.5863
236.000000, 73.986, -36.6522
240.000000, 73.958, -36.8044
243.000000, 73.938, -36.9446
247.000000, 73.914, -37.1203
250.000000, 73.899, -37.2311
254.000000, 73.880, -37.3717
258.000000, 73.860, -37.4184
262.000000, 73.835, -37.4821
265.000000, 73.817, -37.5942
269.000000, 73.801, -37.7277
272.000000, 73.792, -37.8001
276.000000, 73.779, -37.8958
280.000000, 73.769, -38.0249
285.000000, 73.754, -38.1395
290.000000, 73.739, -38.2598
295.000000, 73.728, -38.4610
300.000000, 73.722, -38.6378
304.000000, 73.713, -38.7462
307.000000, 73.702, -38.8586
311.000000, 73.687, -38.9856
315.000000, 73.679, -39.1054
320.000000, 73.675, -39.2842
325.000000, 73.668, -39.5027
330.000000, 73.660, -39.6814
335.000000, 73.652, -39.8611
340.000000, 73.643, -40.0719
345.000000, 73.632, -40.3001
350.000000, 73.628, -40.5174
355.000000, 73.629, -40.7234
360.000000, 73.627, -40.9247
365.000000, 73.620, -41.1189
370.000000, 73.618, -41.3329
375.000000, 73.613, -41.5332
382.000000, 73.602, -41.8282
387.000000, 73.595, -42.0740
395.000000, 73.586, -42.4887
400.000000, 73.585, -42.7499
406.000000, 73.584, -43.0679
412.000000, 73.574, -43.3235
418.000000, 73.559, -43.5811
425.000000, 73.552, -43.8865
431.000000, 73.553, -44.1463
437.000000, 73.550, -44.4427
444.000000, 73.540, -44.8284
450.000000, 73.533, -45.0994
455.000000, 73.529, -45.2905
462.000000, 73.524, -45.6147
468.000000, 73.519, -45.9078
475.000000, 73.514, -46.2518
482.000000, 73.504, -46.6300
487.000000, 73.496, -46.8934
494.000000, 73.487, -47.2036
500.000000, 73.480, -47.4420
508.000000, 73.472, -47.8033
515.000000, 73.466, -48.1645
522.000000, 73.464, -48.5079
530.000000, 73.462, -48.8526
538.000000, 73.455, -49.1930
545.000000, 73.448, -49.5185
552.000000, 73.442, -49.8437
560.000000, 73.436, -50.1793
570.000000, 73.421, -50.5921
580.000000, 73.411, -51.0156
590.000000, 73.408, -51.4470
600.000000, 73.408, -51.8871
608.000000, 73.406, -52.2310
615.000000, 73.396, -52.5023
622.000000, 73.382, -52.7759
630.000000, 73.373, -53.1343
640.000000, 73.363, -53.5590
650.000000, 73.347, -53.8999
660.000000, 73.336, -54.2188
670.000000, 73.331, -54.5449
680.000000, 73.329, -54.8598
690.000000, 73.330, -55.1696
700.000000, 73.330, -55.4823
710.000000, 73.326, -55.7999
720.000000, 73.332, -56.1171
730.000000, 73.335, -56.4283
740.000000, 73.338, -56.7240
750.000000, 73.348, -56.9967
762.000000, 73.358, -57.2978
775.000000, 73.367, -57.6144
788.000000, 73.385, -57.9386
800.000000, 73.408, -58.2509
812.000000, 73.426, -58.6052
825.000000, 73.447, -58.9225
838.000000, 73.475, -59.1633
850.000000, 73.512, -59.4206
862.000000, 73.554, -59.6890
875.000000, 73.601, -59.9900
885.000000, 73.639, -60.2394
900.000000, 73.697, -60.5983
912.000000, 73.747, -60.8658
925.000000, 73.809, -61.1806
938.000000, 73.873, -61.5538
950.000000, 73.934, -61.8891
962.000000, 74.002, -62.2277
975.000000, 74.081, -62.6317
988.000000, 74.164, -63.0718
1000.000000, 74.240, -63.4790
1015.000000, 74.332, -63.9848
1030.000000, 74.428, -64.5792
1044.000000, 74.522, -65.1421
1060.000000, 74.636, -65.8179
1075.000000, 74.742, -66.4920
1090.000000, 74.843, -67.2126
1106.000000, 74.951, -68.0289
1120.000000, 75.046, -68.7662
1138.000000, 75.166, -69.7907
1150.000000, 75.241, -70.5126
1172.000000, 75.378, -71.8347
1180.000000, 75.426, -72.3239
1206.000000, 75.577, -73.9348
1220.000000, 75.655, -74.8446
1241.000000, 75.765, -76.2123
1250.000000, 75.811, -76.8034
1265.000000, 75.884, -77.7793
1280.000000, 75.952, -78.7362
1315.000000, 76.104, -81.0209
1320.000000, 76.125, -81.3446
1340.000000, 76.204, -82.6666
1360.000000, 76.279, -84.0007
1380.000000, 76.350, -85.2889
1400.000000, 76.419, -86.5553
1430.000000, 76.517, -88.4022
1450.000000, 76.582, -89.6227
1475.000000, 76.661, -91.1460
1500.000000, 76.735, -92.6513
1525.000000, 76.805, -94.1168
1550.000000, 76.874, -95.6105
1575.000000, 76.944, -97.0947
1600.000000, 77.014, -98.5138
1625.000000, 77.082, -99.8825
1650.000000, 77.147, -101.2182
1675.000000, 77.214, -102.5198
1700.000000, 77.284, -103.7748
1725.000000, 77.358, -104.9552
1750.000000, 77.442, -106.0529
1775.000000, 77.545, -107.1163
1800.000000, 77.675, -108.2372
1825.000000, 77.816, -109.5130
1850.000000, 77.952, -110.9163
1875.000000, 78.077, -112.3769
1900.000000, 78.193, -113.8505
1925.000000, 78.300, -115.3012
1950.000000, 78.404, -116.7235
1975.000000, 78.510, -118.1320
2000.000000, 78.619, -119.5422
2030.000000, 78.754, -121.1947
2060.000000, 78.893, -122.8302
2090.000000, 79.038, -124.4668
2120.000000, 79.191, -126.1042
2140.000000, 79.299, -127.2000
2180.000000, 79.531, -129.4784
2200.000000, 79.651, -130.6867
2240.000000, 79.891, -133.2184
2270.000000, 80.065, -135.1712
2300.000000, 80.236, -137.1374
2330.000000, 80.405, -139.1342
2360.000000, 80.574, -141.1373
2400.000000, 80.801, -143.8242
2430.000000, 80.973, -145.8832
2470.000000, 81.214, -148.6683
2500.000000, 81.406, -150.8102
2540.000000, 81.674, -153.8241
2580.000000, 81.944, -157.0880
2620.000000, 82.196, -160.5926
2650.000000, 82.366, -163.3271
2690.000000, 82.571, -167.0475
2720.000000, 82.710, -169.8741
2760.000000, 82.880, -173.6974
2800.000000, 83.033, -177.5913
2850.000000, 83.203, 177.4478
2900.000000, 83.338, 172.3626
2950.000000, 83.430, 167.1544
3000.000000, 83.472, 161.9146
3040.000000, 83.470, 157.7637
3070.000000, 83.450, 154.6882
3110.000000, 83.398, 150.6544
3150.000000, 83.322, 146.7182
3200.000000, 83.195, 141.9695
3250.000000, 83.038, 137.4353
3300.000000, 82.860, 133.1329
3350.000000, 82.669, 129.0909
3400.000000, 82.472, 125.2764
3450.000000, 82.274, 121.6765
3500.000000, 82.080, 118.2633
3550.000000, 81.891, 115.0022
3600.000000, 81.709, 111.8801
3650.000000, 81.530, 108.8900
3700.000000, 81.356, 106.0026
3750.000000, 81.187, 103.2005
3820.000000, 80.953, 99.4148
3870.000000, 80.782, 96.8468
3950.000000, 80.503, 93.0967
4000.000000, 80.340, 91.0218
4060.000000, 80.174, 88.8096
4120.000000, 80.050, 86.7376
4180.000000, 79.969, 84.6919
4250.000000, 79.917, 82.3062
4310.000000, 79.898, 80.2444
4370.000000, 79.899, 78.1349
4440.000000, 79.924, 75.6214
4500.000000, 79.967, 73.4218
4550.000000, 80.013, 71.5485
4620.000000, 80.099, 68.8609
4680.000000, 80.190, 66.4528
4750.000000, 80.315, 63.5019
4820.000000, 80.452, 60.3759
4870.000000, 80.554, 58.0304
4940.000000, 80.698, 54.5885
5000.000000, 80.820, 51.4636
5080.000000, 80.973, 47.0457
5150.000000, 81.088, 42.9754
5220.000000, 81.178, 38.7411
5300.000000, 81.241, 33.7376
5380.000000, 81.253, 28.6150
5450.000000, 81.220, 24.1022
5520.000000, 81.147, 19.6320
5600.000000, 81.016, 14.6567
5700.000000, 80.783, 8.7336
5800.000000, 80.492, 3.2709
5900.000000, 80.166, -1.6677
6000.000000, 79.833, -6.0259
6080.000000, 79.579, -9.1008
6150.000000, 79.374, -11.5266
6220.000000, 79.188, -13.7518
6300.000000, 79.005, -16.0967
6400.000000, 78.832, -18.7559
6500.000000, 78.723, -21.2101
6600.000000, 78.683, -23.5717
6700.000000, 78.725, -25.9195
6800.000000, 78.850, -28.4235
6900.000000, 79.049, -31.2725
7000.000000, 79.302, -34.6215
7100.000000, 79.591, -38.5772
7200.000000, 79.891, -43.1847
7300.000000, 80.178, -48.4657
7400.000000, 80.421, -54.4496
7500.000000, 80.583, -61.0894
7620.000000, 80.625, -69.6265
7750.000000, 80.465, -79.1248
7880.000000, 80.091, -88.5304
8000.000000, 79.542, -96.7004
8120.000000, 78.847, -103.8517
8250.000000, 78.014, -110.2746
8380.000000, 77.158, -115.4669
8500.000000, 76.386, -119.2515
8620.000000, 75.673, -122.1863
8750.000000, 74.994, -124.6426
8850.000000, 74.538, -126.2396
9000.000000, 73.952, -128.4349
9120.000000, 73.549, -130.1506
9250.000000, 73.142, -131.9536
9380.000000, 72.752, -133.4865
9500.000000, 72.431, -134.5769
9620.000000, 72.170, -135.3648
9750.000000, 71.975, -136.0693
9880.000000, 71.869, -136.9464
10000.000000, 71.813, -138.1110
10150.000000, 71.748, -139.8223
10300.000000, 71.691, -141.3285
10440.000000, 71.710, -142.4352
10600.000000, 71.837, -144.0939
10750.000000, 71.990, -146.4164
10900.000000, 72.086, -149.3161
11060.000000, 72.054, -152.4075
11200.000000, 71.954, -154.2291
11380.000000, 71.960, -154.9897
11500.000000, 72.139, -155.1788
11720.000000, 72.761, -156.5964
11800.000000, 73.037, -157.6631
12060.000000, 73.957, -163.0977
12200.000000, 74.414, -167.0711
12410.000000, 74.979, -174.0720
12500.000000, 75.163, -177.3289
12650.000000, 75.386, 177.1115
12800.000000, 75.510, 171.6164
13150.000000, 75.549, 160.0768
13200.000000, 75.543, 158.6085
13400.000000, 75.533, 153.1270
13600.000000, 75.581, 148.1677
13800.000000, 75.712, 143.4896
14000.000000, 75.952, 138.7501
14300.000000, 76.527, 130.7487
14500.000000, 77.035, 124.2262
14750.000000, 77.685, 113.9371
15000.000000, 78.113, 101.2575
15250.000000, 78.131, 87.5267
15500.000000, 77.781, 74.6082
15750.000000, 77.280, 63.2519
16000.000000, 76.794, 52.9430
16250.000000, 76.329, 42.9062
16500.000000, 75.814, 32.8339
16750.000000, 75.198, 23.0106
17000.000000, 74.490, 13.8423
17250.000000, 73.739, 5.5299
17500.000000, 72.981, -1.9935
17750.000000, 72.230, -8.8563
18000.000000, 71.472, -14.9857
18250.000000, 70.724, -20.0005
18500.000000, 70.145, -22.8860
18750.000000, 70.326, -24.5546
19000.000000, 71.087, -33.4437
19250.000000, 71.042, -49.0504
19500.000000, 70.021, -63.8057
19750.000000, 68.665, -75.3536
20000.000000, 67.734, -84.9881
