* Measurement data measured by REW V5.31.3
* Source: Input device not selected, no input selected, L, volume: no control
* Format: 256k Log Swept Sine, 1 sweep at -12.0 dBFS with no timing reference
* Dated: Aug 25, 2024 1:53:46 AM
* REW Settings:
*  C-weighting compensation: Off
*  Target level: 75.0 dB
* Note: ; 
* Measurement: Studio 4 (Sancai)
* Smoothing: 1/24 octave
* Frequency Step: 1/48 octave
* Start Frequency: 20.300 Hz
*
* Freq(Hz), SPL(dB), Phase(degrees)
20.299999, 80.036, 34.2751
20.600000, 80.070, 33.5206
20.900000, 80.103, 32.7128
21.200001, 80.133, 31.9154
21.400000, 80.153, 31.3933
21.799999, 80.194, 30.3737
22.000000, 80.215, 29.8758
22.400000, 80.258, 28.9008
22.700001, 80.290, 28.1832
23.000000, 80.320, 27.4725
23.299999, 80.347, 26.7652
23.600000, 80.370, 26.0594
24.000000, 80.395, 25.1212
24.299999, 80.409, 24.4220
24.700001, 80.426, 23.5006
25.000000, 80.438, 22.8199
25.400000, 80.456, 21.9264
25.799999, 80.475, 21.0465
26.200001, 80.495, 20.1785
26.500000, 80.509, 19.5368
26.900000, 80.526, 18.6991
27.200001, 80.535, 18.0882
27.600000, 80.547, 17.2996
28.000000, 80.557, 16.5372
28.500000, 80.570, 15.6089
29.000000, 80.582, 14.6985
29.500000, 80.590, 13.8076
30.000000, 80.596, 12.9384
30.400000, 80.600, 12.2511
30.700001, 80.602, 11.7335
31.100000, 80.604, 11.0367
31.500000, 80.603, 10.3379
32.000000, 80.598, 9.4855
32.500000, 80.593, 8.6801
33.000000, 80.591, 7.9172
33.500000, 80.591, 7.1667
34.000000, 80.590, 6.4062
34.500000, 80.582, 5.6412
35.000000, 80.569, 4.8916
35.500000, 80.555, 4.1662
36.000000, 80.545, 3.4567
36.500000, 80.537, 2.7534
37.000000, 80.527, 2.0590
37.500000, 80.514, 1.3845
38.200001, 80.489, 0.4839
38.700001, 80.469, -0.1370
39.500000, 80.436, -1.1220
40.000000, 80.416, -1.7395
40.599998, 80.392, -2.4727
41.200001, 80.369, -3.1787
41.799999, 80.345, -3.8473
42.500000, 80.317, -4.5944
43.099998, 80.291, -5.2293
43.700001, 80.262, -5.8654
44.400002, 80.224, -6.5938
45.000000, 80.191, -7.1976
45.500000, 80.165, -7.6925
46.200001, 80.132, -8.3844
46.799999, 80.103, -8.9685
47.500000, 80.066, -9.6175
48.200001, 80.029, -10.2377
48.700001, 80.002, -10.6791
49.400002, 79.962, -11.3003
50.000000, 79.926, -11.8275
50.799999, 79.884, -12.5264
51.500000, 79.849, -13.1451
52.200001, 79.811, -13.7468
53.000000, 79.762, -14.3765
53.799999, 79.713, -14.9631
54.500000, 79.671, -15.4672
55.200001, 79.627, -15.9600
56.000000, 79.579, -16.5109
57.000000, 79.518, -17.2044
58.000000, 79.455, -17.8929
59.000000, 79.393, -18.5635
60.000000, 79.329, -19.1782
60.799999, 79.277, -19.6277
61.500000, 79.232, -20.0379
62.200001, 79.186, -20.4702
63.000000, 79.134, -20.9562
64.000000, 79.075, -21.5404
65.000000, 79.011, -22.0819
66.000000, 78.946, -22.5643
67.000000, 78.886, -23.0461
68.000000, 78.828, -23.5209
69.000000, 78.767, -23.9979
70.000000, 78.698, -24.4690
71.000000, 78.627, -24.9179
72.000000, 78.559, -25.3620
73.000000, 78.493, -25.7838
74.000000, 78.432, -26.1822
75.000000, 78.374, -26.5709
76.199997, 78.302, -27.0192
77.500000, 78.220, -27.4638
78.800003, 78.142, -27.9003
80.000000, 78.072, -28.3089
81.199997, 78.001, -28.6669
82.500000, 77.922, -29.0390
83.800003, 77.846, -29.4355
85.000000, 77.775, -29.7905
86.199997, 77.701, -30.1040
87.500000, 77.622, -30.4187
88.500000, 77.566, -30.6480
90.000000, 77.484, -31.0259
91.199997, 77.415, -31.3088
92.500000, 77.340, -31.5743
93.800003, 77.266, -31.8200
95.000000, 77.202, -32.0628
96.199997, 77.138, -32.3054
97.500000, 77.068, -32.5279
98.800003, 77.000, -32.7199
100.000000, 76.938, -32.8989
101.500000, 76.863, -33.1641
103.000000, 76.791, -33.4068
104.400002, 76.726, -33.5703
106.000000, 76.653, -33.7467
107.500000, 76.580, -33.9152
109.000000, 76.506, -34.0865
110.599998, 76.439, -34.2507
112.000000, 76.383, -34.3625
113.800003, 76.302, -34.5170
115.000000, 76.245, -34.6293
117.199997, 76.144, -34.7826
118.000000, 76.112, -34.8443
120.599998, 76.008, -35.0650
122.000000, 75.950, -35.1692
124.099998, 75.867, -35.2653
125.000000, 75.831, -35.2978
126.500000, 75.776, -35.3776
128.000000, 75.724, -35.4467
131.500000, 75.605, -35.5547
132.000000, 75.589, -35.5754
134.000000, 75.526, -35.6759
136.000000, 75.459, -35.7606
138.000000, 75.390, -35.8358
140.000000, 75.325, -35.8366
143.000000, 75.234, -35.7897
145.000000, 75.175, -35.8348
147.500000, 75.104, -35.8147
150.000000, 75.043, -35.9163
152.500000, 74.966, -35.9675
155.000000, 74.898, -35.6643
157.500000, 74.839, -35.6198
160.000000, 74.766, -35.8297
162.500000, 74.719, -35.7916
165.000000, 74.675, -35.7488
167.500000, 74.626, -35.7707
170.000000, 74.583, -35.7007
172.500000, 74.527, -35.6712
175.000000, 74.469, -35.6084
177.500000, 74.422, -35.5709
180.000000, 74.381, -35.4414
182.500000, 74.344, -35.2819
185.000000, 74.303, -35.1770
187.500000, 74.254, -34.9596
190.000000, 74.207, -34.6654
192.500000, 74.171, -34.4411
195.000000, 74.156, -34.2127
197.500000, 74.155, -33.8886
200.000000, 74.170, -33.5279
203.000000, 74.222, -33.2307
206.000000, 74.277, -33.1027
209.000000, 74.343, -33.3080
212.000000, 74.400, -33.7007
214.000000, 74.416, -34.0000
218.000000, 74.408, -34.6035
220.000000, 74.389, -34.8799
224.000000, 74.346, -35.3236
227.000000, 74.310, -35.5824
230.000000, 74.275, -35.7670
233.000000, 74.247, -35.9071
236.000000, 74.222, -35.9891
240.000000, 74.182, -36.1310
243.000000, 74.152, -36.2354
247.000000, 74.119, -36.3159
250.000000, 74.100, -36.3343
254.000000, 74.080, -36.3892
258.000000, 74.067, -36.4550
262.000000, 74.051, -36.4987
265.000000, 74.039, -36.5157
269.000000, 74.027, -36.6084
272.000000, 74.021, -36.7151
276.000000, 74.016, -36.9025
280.000000, 74.014, -37.0864
285.000000, 74.007, -37.3084
290.000000, 74.000, -37.5446
295.000000, 73.995, -37.7581
300.000000, 73.987, -37.9293
304.000000, 73.979, -38.1154
307.000000, 73.974, -38.2537
311.000000, 73.966, -38.4549
315.000000, 73.961, -38.6695
320.000000, 73.955, -38.9007
325.000000, 73.947, -39.1649
330.000000, 73.940, -39.4062
335.000000, 73.929, -39.6552
340.000000, 73.918, -39.9168
345.000000, 73.909, -40.1706
350.000000, 73.901, -40.4131
355.000000, 73.893, -40.6802
360.000000, 73.887, -40.9334
365.000000, 73.880, -41.1354
370.000000, 73.872, -41.3622
375.000000, 73.864, -41.6096
382.000000, 73.850, -41.9694
387.000000, 73.840, -42.2468
395.000000, 73.825, -42.6141
400.000000, 73.818, -42.8483
406.000000, 73.811, -43.1395
412.000000, 73.804, -43.4188
418.000000, 73.793, -43.7533
425.000000, 73.777, -44.1284
431.000000, 73.765, -44.4444
437.000000, 73.758, -44.7566
444.000000, 73.751, -45.0729
450.000000, 73.740, -45.3481
455.000000, 73.727, -45.6075
462.000000, 73.707, -45.9408
468.000000, 73.694, -46.1973
475.000000, 73.675, -46.5064
482.000000, 73.657, -46.8429
487.000000, 73.647, -47.0412
494.000000, 73.636, -47.2910
500.000000, 73.626, -47.5058
508.000000, 73.609, -47.7035
515.000000, 73.598, -47.8754
522.000000, 73.599, -47.9948
530.000000, 73.615, -48.0891
538.000000, 73.653, -48.2424
545.000000, 73.699, -48.4720
552.000000, 73.742, -48.8380
560.000000, 73.781, -49.4241
570.000000, 73.807, -50.1861
580.000000, 73.806, -50.9053
590.000000, 73.795, -51.5487
600.000000, 73.780, -52.1313
608.000000, 73.761, -52.6023
615.000000, 73.750, -52.9785
622.000000, 73.744, -53.3175
630.000000, 73.737, -53.6793
640.000000, 73.723, -54.1467
650.000000, 73.710, -54.5958
660.000000, 73.703, -55.0025
670.000000, 73.694, -55.3918
680.000000, 73.688, -55.7840
690.000000, 73.690, -56.1611
700.000000, 73.686, -56.5507
710.000000, 73.678, -56.9256
720.000000, 73.677, -57.2668
730.000000, 73.676, -57.5962
740.000000, 73.670, -57.9891
750.000000, 73.671, -58.3465
762.000000, 73.671, -58.6854
775.000000, 73.671, -59.0521
788.000000, 73.675, -59.4053
800.000000, 73.688, -59.6947
812.000000, 73.709, -59.9407
825.000000, 73.738, -60.2426
838.000000, 73.768, -60.5475
850.000000, 73.797, -60.8241
862.000000, 73.833, -61.1031
875.000000, 73.877, -61.4011
885.000000, 73.914, -61.6315
900.000000, 73.973, -62.0060
912.000000, 74.021, -62.3127
925.000000, 74.080, -62.6371
938.000000, 74.146, -62.9752
950.000000, 74.214, -63.2961
962.000000, 74.282, -63.6350
975.000000, 74.357, -64.0316
988.000000, 74.435, -64.4517
1000.000000, 74.509, -64.8473
1015.000000, 74.613, -65.3783
1030.000000, 74.719, -65.9754
1044.000000, 74.822, -66.5506
1060.000000, 74.941, -67.2540
1075.000000, 75.050, -67.9565
1090.000000, 75.157, -68.7133
1106.000000, 75.274, -69.6014
1120.000000, 75.375, -70.3820
1138.000000, 75.502, -71.3884
1150.000000, 75.587, -72.0958
1172.000000, 75.734, -73.4636
1180.000000, 75.784, -73.9869
1206.000000, 75.947, -75.7069
1220.000000, 76.031, -76.6306
1241.000000, 76.150, -78.0560
1250.000000, 76.199, -78.6720
1265.000000, 76.277, -79.7165
1280.000000, 76.353, -80.7678
1315.000000, 76.515, -83.2015
1320.000000, 76.536, -83.5573
1340.000000, 76.621, -84.9868
1360.000000, 76.702, -86.3769
1380.000000, 76.778, -87.7253
1400.000000, 76.850, -89.0536
1430.000000, 76.946, -91.0814
1450.000000, 77.011, -92.4110
1475.000000, 77.088, -94.0427
1500.000000, 77.166, -95.6304
1525.000000, 77.244, -97.2117
1550.000000, 77.322, -98.7802
1575.000000, 77.396, -100.3087
1600.000000, 77.469, -101.8087
1625.000000, 77.543, -103.3146
1650.000000, 77.621, -104.7972
1675.000000, 77.704, -106.2509
1700.000000, 77.787, -107.6986
1725.000000, 77.871, -109.1413
1750.000000, 77.958, -110.5961
1775.000000, 78.044, -112.0361
1800.000000, 78.133, -113.4621
1825.000000, 78.227, -114.8787
1850.000000, 78.322, -116.3177
1875.000000, 78.421, -117.7432
1900.000000, 78.521, -119.1583
1925.000000, 78.622, -120.5792
1950.000000, 78.725, -122.0114
1975.000000, 78.834, -123.4394
2000.000000, 78.947, -124.8668
2030.000000, 79.085, -126.6401
2060.000000, 79.225, -128.4323
2090.000000, 79.369, -130.2213
2120.000000, 79.515, -132.0292
2140.000000, 79.615, -133.2506
2180.000000, 79.820, -135.7395
2200.000000, 79.925, -137.0100
2240.000000, 80.140, -139.5979
2270.000000, 80.305, -141.5625
2300.000000, 80.471, -143.5605
2330.000000, 80.639, -145.6186
2360.000000, 80.808, -147.7358
2400.000000, 81.036, -150.6322
2430.000000, 81.206, -152.8633
2470.000000, 81.433, -155.9269
2500.000000, 81.602, -158.3044
2540.000000, 81.826, -161.5605
2580.000000, 82.044, -164.9119
2620.000000, 82.255, -168.3885
2650.000000, 82.405, -171.0867
2690.000000, 82.594, -174.7771
2720.000000, 82.725, -177.6164
2760.000000, 82.886, 178.5167
2800.000000, 83.026, 174.5542
2850.000000, 83.170, 169.4880
2900.000000, 83.276, 164.3302
2950.000000, 83.339, 159.1287
3000.000000, 83.358, 153.9301
3040.000000, 83.341, 149.7975
3070.000000, 83.311, 146.7341
3110.000000, 83.252, 142.7267
3150.000000, 83.170, 138.8127
3200.000000, 83.037, 134.0629
3250.000000, 82.881, 129.5137
3300.000000, 82.708, 125.1566
3350.000000, 82.519, 120.9921
3400.000000, 82.320, 117.0304
3450.000000, 82.117, 113.2562
3500.000000, 81.912, 109.6338
3550.000000, 81.703, 106.2046
3600.000000, 81.494, 102.9568
3650.000000, 81.286, 99.8713
3700.000000, 81.084, 96.9387
3750.000000, 80.890, 94.1515
3820.000000, 80.635, 90.4633
3870.000000, 80.464, 87.9751
3950.000000, 80.213, 84.2033
4000.000000, 80.075, 81.9597
4060.000000, 79.926, 79.3813
4120.000000, 79.797, 76.8678
4180.000000, 79.689, 74.4152
4250.000000, 79.588, 71.6166
4310.000000, 79.523, 69.2592
4370.000000, 79.477, 66.9293
4440.000000, 79.447, 64.1944
4500.000000, 79.441, 61.8183
4550.000000, 79.449, 59.7993
4620.000000, 79.482, 56.9020
4680.000000, 79.525, 54.3358
4750.000000, 79.590, 51.2367
4820.000000, 79.664, 47.9830
4870.000000, 79.722, 45.5504
4940.000000, 79.805, 41.9974
5000.000000, 79.873, 38.8037
5080.000000, 79.951, 34.3370
5150.000000, 80.002, 30.2197
5220.000000, 80.027, 25.9321
5300.000000, 80.016, 20.8608
5380.000000, 79.956, 15.6635
5450.000000, 79.857, 11.0889
5520.000000, 79.713, 6.5566
5600.000000, 79.493, 1.4984
5700.000000, 79.141, -4.5061
5800.000000, 78.723, -10.0448
5900.000000, 78.257, -15.0151
6000.000000, 77.759, -19.3277
6080.000000, 77.354, -22.3026
6150.000000, 77.006, -24.5784
6220.000000, 76.672, -26.5615
6300.000000, 76.315, -28.4661
6400.000000, 75.915, -30.3929
6500.000000, 75.576, -31.9388
6600.000000, 75.305, -33.1455
6700.000000, 75.106, -34.1115
6800.000000, 74.978, -34.9249
6900.000000, 74.929, -35.6570
7000.000000, 74.961, -36.3990
7100.000000, 75.070, -37.1810
7200.000000, 75.255, -38.1078
7300.000000, 75.520, -39.3075
7400.000000, 75.857, -40.8442
7500.000000, 76.255, -42.7558
7620.000000, 76.811, -45.6701
7750.000000, 77.506, -49.8726
7880.000000, 78.244, -55.6309
8000.000000, 78.875, -62.3639
8120.000000, 79.398, -70.2891
8250.000000, 79.787, -80.0958
8380.000000, 79.913, -90.7184
8500.000000, 79.759, -100.5790
8620.000000, 79.371, -109.8546
8750.000000, 78.762, -118.7177
8850.000000, 78.227, -124.5811
9000.000000, 77.413, -132.1718
9120.000000, 76.776, -137.6345
9250.000000, 76.047, -143.1373
9380.000000, 75.247, -147.8029
9500.000000, 74.497, -151.0616
9620.000000, 73.803, -153.3629
9750.000000, 73.158, -155.0751
9880.000000, 72.645, -156.3655
10000.000000, 72.275, -157.5569
10150.000000, 71.875, -159.3984
10300.000000, 71.463, -161.1241
10440.000000, 71.106, -162.2120
10600.000000, 70.781, -163.1113
10750.000000, 70.566, -163.7961
10900.000000, 70.437, -164.4006
11060.000000, 70.374, -165.0828
11200.000000, 70.370, -165.7540
11380.000000, 70.432, -166.7409
11500.000000, 70.515, -167.4458
11720.000000, 70.759, -168.8258
11800.000000, 70.879, -169.4104
12060.000000, 71.379, -171.7746
12200.000000, 71.713, -173.4399
12410.000000, 72.278, -176.5955
12500.000000, 72.537, -178.2388
12650.000000, 72.981, 178.6284
12800.000000, 73.430, 175.0042
13150.000000, 74.416, 164.6760
13200.000000, 74.543, 163.0012
13400.000000, 75.001, 155.7996
13600.000000, 75.359, 147.9133
13800.000000, 75.592, 139.5691
14000.000000, 75.682, 131.0452
14300.000000, 75.570, 118.6508
14500.000000, 75.397, 110.9449
14750.000000, 75.135, 101.8213
15000.000000, 74.815, 93.0845
15250.000000, 74.417, 84.9308
15500.000000, 73.981, 77.8566
15750.000000, 73.626, 72.0793
16000.000000, 73.494, 67.2200
16250.000000, 73.660, 62.2723
16500.000000, 74.094, 55.9545
16750.000000, 74.668, 47.2142
17000.000000, 75.167, 35.5538
17250.000000, 75.328, 21.3638
17500.000000, 74.945, 6.1203
17750.000000, 73.989, -8.0493
18000.000000, 72.596, -19.4496
18250.000000, 70.974, -27.0968
18500.000000, 69.433, -29.3669
18750.000000, 68.889, -27.2228
19000.000000, 69.309, -32.4867
19250.000000, 69.097, -44.7612
19500.000000, 68.072, -56.1229
19750.000000, 66.853, -64.8971
20000.000000, 66.060, -72.7535
