* Measurement data measured by REW V5.31.3
* Source: Input device not selected, no input selected, L, volume: no control
* Format: 256k Log Swept Sine, 1 sweep at -12.0 dBFS with no timing reference
* Dated: Sep 27, 2024 6:48:59 PM
* REW Settings:
*  C-weighting compensation: Off
*  Target level: 75.0 dB
* Note: ; 
* Measurement: Studio 4 (Spinfit MS)
* Smoothing: 1/24 octave
* Frequency Step: 1/48 octave
* Start Frequency: 20.300 Hz
*
* Freq(Hz), SPL(dB), Phase(degrees)
20.299999, 81.364, 33.7728
20.600000, 81.236, 32.9411
20.900000, 81.059, 31.7495
21.200001, 80.881, 30.2938
21.400000, 80.782, 29.2335
21.799999, 80.669, 27.1013
22.000000, 80.658, 26.1308
22.400000, 80.709, 24.5872
22.700001, 80.784, 23.8517
23.000000, 80.867, 23.4470
23.299999, 80.941, 23.2616
23.600000, 80.994, 23.1446
24.000000, 81.021, 22.8502
24.299999, 81.008, 22.4188
24.700001, 80.960, 21.5601
25.000000, 80.914, 20.7893
25.400000, 80.868, 19.7646
25.799999, 80.857, 18.8789
26.200001, 80.880, 18.1594
26.500000, 80.907, 17.6889
26.900000, 80.935, 17.0876
27.200001, 80.941, 16.6316
27.600000, 80.929, 16.0158
28.000000, 80.909, 15.4129
28.500000, 80.900, 14.7075
29.000000, 80.917, 14.0578
29.500000, 80.937, 13.4415
30.000000, 80.930, 12.8407
30.400000, 80.897, 12.3727
30.700001, 80.864, 12.0311
31.100000, 80.825, 11.5783
31.500000, 80.812, 11.0958
32.000000, 80.836, 10.3884
32.500000, 80.871, 9.5796
33.000000, 80.868, 8.8498
33.500000, 80.815, 8.4421
34.000000, 80.754, 8.4124
34.500000, 80.738, 8.5076
35.000000, 80.777, 8.3620
35.500000, 80.835, 7.8311
36.000000, 80.871, 7.0431
36.500000, 80.874, 6.1835
37.000000, 80.848, 5.3246
37.500000, 80.802, 4.4740
38.200001, 80.719, 3.4360
38.700001, 80.675, 2.9494
39.500000, 80.677, 2.5242
40.000000, 80.705, 2.2451
40.599998, 80.715, 1.7674
41.200001, 80.675, 1.2337
41.799999, 80.602, 0.7921
42.500000, 80.527, 0.4245
43.099998, 80.492, 0.0943
43.700001, 80.473, -0.3890
44.400002, 80.431, -1.1100
45.000000, 80.370, -1.6771
45.500000, 80.320, -2.0363
46.200001, 80.278, -2.4436
46.799999, 80.263, -2.8231
47.500000, 80.237, -3.3120
48.200001, 80.188, -3.7495
48.700001, 80.146, -4.0059
49.400002, 80.095, -4.3283
50.000000, 80.063, -4.6194
50.799999, 80.021, -5.0552
51.500000, 79.972, -5.4591
52.200001, 79.913, -5.8601
53.000000, 79.851, -6.2836
53.799999, 79.804, -6.6427
54.500000, 79.764, -6.9454
55.200001, 79.713, -7.2913
56.000000, 79.648, -7.6860
57.000000, 79.596, -8.0294
58.000000, 79.560, -8.2692
59.000000, 79.490, -8.5412
60.000000, 79.402, -8.9249
60.799999, 79.338, -9.2866
61.500000, 79.290, -9.5762
62.200001, 79.250, -9.8379
63.000000, 79.197, -10.0982
64.000000, 79.111, -10.2627
65.000000, 79.039, -10.3787
66.000000, 78.977, -10.6671
67.000000, 78.896, -10.8932
68.000000, 78.835, -11.0275
69.000000, 78.784, -11.2952
70.000000, 78.660, -11.6183
71.000000, 78.466, -11.9887
72.000000, 78.355, -12.2565
73.000000, 78.415, -12.1888
74.000000, 78.466, -12.0051
75.000000, 78.379, -11.9736
76.199997, 78.248, -12.3685
77.500000, 78.162, -12.9101
78.800003, 78.096, -13.0010
80.000000, 78.038, -12.8453
81.199997, 77.944, -12.8982
82.500000, 77.869, -13.1084
83.800003, 77.815, -12.9418
85.000000, 77.728, -12.8988
86.199997, 77.652, -13.1080
87.500000, 77.569, -13.0217
88.500000, 77.482, -12.9901
90.000000, 77.370, -13.0170
91.199997, 77.293, -12.8640
92.500000, 77.210, -12.7819
93.800003, 77.140, -12.7980
95.000000, 77.070, -12.7665
96.199997, 77.002, -12.7196
97.500000, 76.931, -12.6173
98.800003, 76.854, -12.5842
100.000000, 76.796, -12.5247
101.500000, 76.727, -12.3376
103.000000, 76.662, -12.1100
104.400002, 76.583, -11.9040
106.000000, 76.477, -11.7105
107.500000, 76.384, -11.5737
109.000000, 76.306, -11.4054
110.599998, 76.220, -11.2204
112.000000, 76.153, -11.0325
113.800003, 76.033, -10.6549
115.000000, 75.947, -10.2950
117.199997, 75.802, -9.4324
118.000000, 75.747, -9.0371
120.599998, 75.576, -7.9850
122.000000, 75.500, -7.4015
124.099998, 75.393, -6.2576
125.000000, 75.377, -5.6139
126.500000, 75.398, -4.5046
128.000000, 75.457, -3.4323
131.500000, 75.785, -2.1851
132.000000, 75.831, -2.2024
134.000000, 75.962, -2.6863
136.000000, 76.011, -3.5257
138.000000, 75.986, -4.1873
140.000000, 75.911, -4.6341
143.000000, 75.746, -4.9449
145.000000, 75.654, -4.8087
147.500000, 75.559, -4.6072
150.000000, 75.464, -4.3827
152.500000, 75.382, -4.0096
155.000000, 75.312, -3.6565
157.500000, 75.233, -3.2588
160.000000, 75.156, -2.8642
162.500000, 75.086, -2.4201
165.000000, 75.025, -1.9837
167.500000, 74.968, -1.5585
170.000000, 74.908, -1.1315
172.500000, 74.854, -0.7216
175.000000, 74.803, -0.2965
177.500000, 74.751, 0.1406
180.000000, 74.702, 0.6213
182.500000, 74.661, 1.0801
185.000000, 74.622, 1.5486
187.500000, 74.584, 2.0201
190.000000, 74.544, 2.4969
192.500000, 74.504, 2.9911
195.000000, 74.469, 3.4940
197.500000, 74.441, 3.9655
200.000000, 74.415, 4.4234
203.000000, 74.377, 5.0063
206.000000, 74.345, 5.5909
209.000000, 74.322, 6.1935
212.000000, 74.306, 6.7583
214.000000, 74.297, 7.1132
218.000000, 74.280, 7.7729
220.000000, 74.272, 8.0973
224.000000, 74.253, 8.7079
227.000000, 74.239, 9.1711
230.000000, 74.226, 9.6461
233.000000, 74.214, 10.1066
236.000000, 74.201, 10.5419
240.000000, 74.185, 11.1193
243.000000, 74.175, 11.5503
247.000000, 74.157, 12.1272
250.000000, 74.147, 12.5491
254.000000, 74.136, 13.1107
258.000000, 74.121, 13.6673
262.000000, 74.100, 14.1752
265.000000, 74.088, 14.5444
269.000000, 74.075, 15.0615
272.000000, 74.064, 15.4683
276.000000, 74.053, 16.0146
280.000000, 74.043, 16.5380
285.000000, 74.028, 17.1643
290.000000, 74.014, 17.8122
295.000000, 73.998, 18.4239
300.000000, 73.987, 19.0234
304.000000, 73.981, 19.5016
307.000000, 73.978, 19.8643
311.000000, 73.973, 20.3583
315.000000, 73.967, 20.8674
320.000000, 73.959, 21.4662
325.000000, 73.951, 22.0443
330.000000, 73.948, 22.6128
335.000000, 73.943, 23.1586
340.000000, 73.934, 23.7139
345.000000, 73.928, 24.2597
350.000000, 73.918, 24.8071
355.000000, 73.904, 25.3669
360.000000, 73.894, 25.9264
365.000000, 73.889, 26.4882
370.000000, 73.884, 27.0083
375.000000, 73.877, 27.5141
382.000000, 73.872, 28.2301
387.000000, 73.865, 28.7360
395.000000, 73.856, 29.5572
400.000000, 73.850, 30.0507
406.000000, 73.845, 30.6289
412.000000, 73.836, 31.2472
418.000000, 73.824, 31.8551
425.000000, 73.816, 32.5557
431.000000, 73.808, 33.1702
437.000000, 73.795, 33.7511
444.000000, 73.775, 34.3992
450.000000, 73.763, 34.9534
455.000000, 73.755, 35.4317
462.000000, 73.741, 36.1273
468.000000, 73.727, 36.7627
475.000000, 73.707, 37.4938
482.000000, 73.684, 38.2206
487.000000, 73.669, 38.7870
494.000000, 73.646, 39.6431
500.000000, 73.629, 40.4207
508.000000, 73.627, 41.5653
515.000000, 73.655, 42.6215
522.000000, 73.714, 43.5463
530.000000, 73.799, 44.2905
538.000000, 73.863, 44.7927
545.000000, 73.890, 45.1248
552.000000, 73.895, 45.4197
560.000000, 73.889, 45.8590
570.000000, 73.879, 46.5591
580.000000, 73.858, 47.3283
590.000000, 73.831, 48.1469
600.000000, 73.814, 48.9728
608.000000, 73.800, 49.6918
615.000000, 73.787, 50.3153
622.000000, 73.775, 50.9125
630.000000, 73.765, 51.5917
640.000000, 73.753, 52.4973
650.000000, 73.744, 53.4175
660.000000, 73.739, 54.3097
670.000000, 73.731, 55.2299
680.000000, 73.724, 56.1949
690.000000, 73.717, 57.1556
700.000000, 73.708, 58.0883
710.000000, 73.699, 59.0210
720.000000, 73.698, 59.9763
730.000000, 73.700, 60.9716
740.000000, 73.705, 61.9713
750.000000, 73.713, 62.9522
762.000000, 73.720, 64.1323
775.000000, 73.727, 65.4386
788.000000, 73.743, 66.7119
800.000000, 73.761, 67.8986
812.000000, 73.778, 69.0986
825.000000, 73.805, 70.3770
838.000000, 73.837, 71.6550
850.000000, 73.865, 72.8447
862.000000, 73.898, 74.0225
875.000000, 73.943, 75.2587
885.000000, 73.980, 76.2384
900.000000, 74.041, 77.7415
912.000000, 74.097, 78.8852
925.000000, 74.157, 80.0934
938.000000, 74.222, 81.2855
950.000000, 74.290, 82.3816
962.000000, 74.360, 83.4699
975.000000, 74.438, 84.5915
988.000000, 74.520, 85.6712
1000.000000, 74.599, 86.6326
1015.000000, 74.701, 87.8306
1030.000000, 74.803, 89.0319
1044.000000, 74.902, 90.1011
1060.000000, 75.018, 91.2066
1075.000000, 75.129, 92.1768
1090.000000, 75.242, 93.1158
1106.000000, 75.360, 94.0811
1120.000000, 75.460, 94.8701
1138.000000, 75.585, 95.8641
1150.000000, 75.669, 96.5014
1172.000000, 75.817, 97.5794
1180.000000, 75.868, 97.9491
1206.000000, 76.028, 99.0691
1220.000000, 76.108, 99.6523
1241.000000, 76.226, 100.5276
1250.000000, 76.275, 100.8913
1265.000000, 76.354, 101.4690
1280.000000, 76.428, 102.0243
1315.000000, 76.585, 103.3532
1320.000000, 76.607, 103.5466
1340.000000, 76.693, 104.2906
1360.000000, 76.772, 105.0093
1380.000000, 76.847, 105.7467
1400.000000, 76.916, 106.4711
1430.000000, 77.013, 107.5795
1450.000000, 77.076, 108.3333
1475.000000, 77.156, 109.2891
1500.000000, 77.231, 110.2677
1525.000000, 77.304, 111.2434
1550.000000, 77.382, 112.2431
1575.000000, 77.458, 113.2546
1600.000000, 77.537, 114.2510
1625.000000, 77.617, 115.2522
1650.000000, 77.698, 116.2633
1675.000000, 77.781, 117.2675
1700.000000, 77.864, 118.2547
1725.000000, 77.950, 119.2127
1750.000000, 78.038, 120.1891
1775.000000, 78.127, 121.1619
1800.000000, 78.219, 122.1272
1825.000000, 78.311, 123.0981
1850.000000, 78.407, 124.0473
1875.000000, 78.505, 124.9681
1900.000000, 78.607, 125.8770
1925.000000, 78.712, 126.7787
1950.000000, 78.820, 127.6688
1975.000000, 78.932, 128.5164
2000.000000, 79.044, 129.3246
2030.000000, 79.178, 130.3178
2060.000000, 79.316, 131.2920
2090.000000, 79.460, 132.2162
2120.000000, 79.605, 133.1090
2140.000000, 79.704, 133.6788
2180.000000, 79.911, 134.7416
2200.000000, 80.017, 135.2375
2240.000000, 80.232, 136.1703
2270.000000, 80.395, 136.8251
2300.000000, 80.559, 137.4149
2330.000000, 80.725, 137.9296
2360.000000, 80.894, 138.3835
2400.000000, 81.122, 138.9043
2430.000000, 81.292, 139.2066
2470.000000, 81.515, 139.4924
2500.000000, 81.680, 139.6240
2540.000000, 81.896, 139.6896
2580.000000, 82.103, 139.6329
2620.000000, 82.304, 139.4462
2650.000000, 82.451, 139.2243
2690.000000, 82.636, 138.8256
2720.000000, 82.767, 138.4469
2760.000000, 82.928, 137.8204
2800.000000, 83.069, 137.0553
2850.000000, 83.213, 135.9170
2900.000000, 83.313, 134.6343
2950.000000, 83.364, 133.2885
3000.000000, 83.369, 131.9370
3040.000000, 83.344, 130.8835
3070.000000, 83.308, 130.1220
3110.000000, 83.240, 129.1651
3150.000000, 83.149, 128.2957
3200.000000, 83.003, 127.3590
3250.000000, 82.833, 126.6029
3300.000000, 82.650, 126.0328
3350.000000, 82.458, 125.6513
3400.000000, 82.261, 125.4413
3450.000000, 82.058, 125.3984
3500.000000, 81.852, 125.5062
3550.000000, 81.649, 125.7408
3600.000000, 81.448, 126.0988
3650.000000, 81.251, 126.5741
3700.000000, 81.060, 127.1646
3750.000000, 80.872, 127.8701
3820.000000, 80.624, 128.9947
3870.000000, 80.459, 129.8815
3950.000000, 80.211, 131.4289
4000.000000, 80.061, 132.4992
4060.000000, 79.888, 133.9340
4120.000000, 79.734, 135.4740
4180.000000, 79.608, 137.0971
4250.000000, 79.501, 139.0058
4310.000000, 79.439, 140.6407
4370.000000, 79.392, 142.2823
4440.000000, 79.357, 144.1868
4500.000000, 79.354, 145.7438
4550.000000, 79.372, 146.9517
4620.000000, 79.418, 148.5213
4680.000000, 79.471, 149.7489
4750.000000, 79.545, 151.0024
4820.000000, 79.628, 152.0706
4870.000000, 79.695, 152.6930
4940.000000, 79.795, 153.3314
5000.000000, 79.880, 153.6810
5080.000000, 79.973, 153.8825
5150.000000, 80.027, 153.8185
5220.000000, 80.047, 153.5664
5300.000000, 80.029, 153.0818
5380.000000, 79.967, 152.4654
5450.000000, 79.868, 151.8899
5520.000000, 79.720, 151.3431
5600.000000, 79.495, 150.8184
5700.000000, 79.144, 150.4571
5800.000000, 78.738, 150.5154
5900.000000, 78.290, 151.0927
6000.000000, 77.814, 152.2146
6080.000000, 77.433, 153.5217
6150.000000, 77.110, 154.9594
6220.000000, 76.804, 156.6578
6300.000000, 76.480, 158.8754
6400.000000, 76.115, 161.9957
6500.000000, 75.807, 165.4459
6600.000000, 75.569, 169.1228
6700.000000, 75.400, 172.9601
6800.000000, 75.305, 176.8729
6900.000000, 75.284, -179.2316
7000.000000, 75.332, -175.4521
7100.000000, 75.445, -171.8230
7200.000000, 75.626, -168.3569
7300.000000, 75.866, -165.1551
7400.000000, 76.165, -162.2663
7500.000000, 76.536, -159.6764
7620.000000, 77.084, -157.2729
7750.000000, 77.742, -156.0976
7880.000000, 78.390, -156.2187
8000.000000, 78.967, -157.5105
8120.000000, 79.452, -160.0607
8250.000000, 79.798, -163.8850
8380.000000, 79.936, -168.3695
8500.000000, 79.868, -172.8373
8620.000000, 79.591, -177.3176
8750.000000, 79.051, 178.4879
8850.000000, 78.504, 176.1613
9000.000000, 77.595, 174.3100
9120.000000, 76.874, 174.0181
9250.000000, 76.147, 174.6065
9380.000000, 75.492, 175.7430
9500.000000, 74.933, 177.1034
9620.000000, 74.403, 178.7617
9750.000000, 73.869, -179.1230
9880.000000, 73.372, -176.6864
10000.000000, 72.937, -174.1827
10150.000000, 72.452, -170.5870
10300.000000, 72.076, -166.5468
10440.000000, 71.827, -162.6809
10600.000000, 71.635, -158.3565
10750.000000, 71.536, -154.4857
10900.000000, 71.506, -150.9378
11060.000000, 71.507, -147.4793
11200.000000, 71.515, -144.5003
11380.000000, 71.578, -140.4433
11500.000000, 71.680, -137.6883
11720.000000, 72.013, -133.0137
11800.000000, 72.179, -131.5190
12060.000000, 72.832, -127.6967
12200.000000, 73.232, -126.4322
12410.000000, 73.845, -125.7088
12500.000000, 74.096, -125.8209
12650.000000, 74.476, -126.5003
12800.000000, 74.798, -127.6590
13150.000000, 75.306, -131.4182
13200.000000, 75.353, -132.0185
13400.000000, 75.491, -134.5276
13600.000000, 75.555, -137.1675
13800.000000, 75.543, -139.8718
14000.000000, 75.457, -142.4773
14300.000000, 75.259, -145.9489
14500.000000, 75.139, -148.1114
14750.000000, 75.010, -151.0895
15000.000000, 74.823, -154.6066
15250.000000, 74.502, -158.1356
15500.000000, 74.071, -160.7523
15750.000000, 73.690, -162.0430
16000.000000, 73.535, -162.5859
16250.000000, 73.662, -163.5551
16500.000000, 74.010, -166.0096
16750.000000, 74.442, -170.5958
17000.000000, 74.777, -177.4545
17250.000000, 74.842, 173.8038
17500.000000, 74.511, 164.2205
17750.000000, 73.756, 155.1448
18000.000000, 72.636, 147.7815
18250.000000, 71.256, 143.5903
18500.000000, 70.053, 144.5900
18750.000000, 70.001, 146.7604
19000.000000, 70.365, 140.7584
19250.000000, 69.944, 131.0212
19500.000000, 68.947, 122.5081
19750.000000, 67.858, 115.5030
20000.000000, 67.159, 110.3342
