* Measurement data measured by REW V5.31.3
* Source: Input device not selected, no input selected, L, volume: no control
* Format: 256k Log Swept Sine, 1 sweep at -12.0 dBFS with no timing reference
* Dated: Aug 25, 2024 1:52:40 AM
* REW Settings:
*  C-weighting compensation: Off
*  Target level: 75.0 dB
* Note: ; 
* Measurement: Studio 4 (S&S)
* Smoothing: 1/24 octave
* Frequency Step: 1/48 octave
* Start Frequency: 20.300 Hz
*
* Freq(Hz), SPL(dB), Phase(degrees)
20.299999, 80.444, 25.7307
20.600000, 80.467, 25.0764
20.900000, 80.489, 24.3769
21.200001, 80.508, 23.6808
21.400000, 80.521, 23.2194
21.799999, 80.546, 22.3017
22.000000, 80.560, 21.8455
22.400000, 80.589, 20.9398
22.700001, 80.610, 20.2677
23.000000, 80.631, 19.6035
23.299999, 80.649, 18.9502
23.600000, 80.664, 18.3112
24.000000, 80.680, 17.4845
24.299999, 80.691, 16.8809
24.700001, 80.704, 16.0865
25.000000, 80.714, 15.4885
25.400000, 80.727, 14.6792
25.799999, 80.736, 13.8610
26.200001, 80.741, 13.0536
26.500000, 80.741, 12.4684
26.900000, 80.741, 11.7230
27.200001, 80.741, 11.1860
27.600000, 80.743, 10.4840
28.000000, 80.745, 9.7826
28.500000, 80.745, 8.9035
29.000000, 80.740, 8.0436
29.500000, 80.733, 7.2222
30.000000, 80.728, 6.4285
30.400000, 80.726, 5.7959
30.700001, 80.724, 5.3184
31.100000, 80.719, 4.6824
31.500000, 80.712, 4.0591
32.000000, 80.701, 3.3127
32.500000, 80.692, 2.6018
33.000000, 80.685, 1.9132
33.500000, 80.677, 1.2388
34.000000, 80.667, 0.5795
34.500000, 80.655, -0.0645
35.000000, 80.640, -0.6970
35.500000, 80.622, -1.3193
36.000000, 80.605, -1.9299
36.500000, 80.588, -2.5339
37.000000, 80.572, -3.1433
37.500000, 80.554, -3.7649
38.200001, 80.522, -4.6347
38.700001, 80.495, -5.2345
39.500000, 80.453, -6.1575
40.000000, 80.428, -6.7253
40.599998, 80.399, -7.4003
41.200001, 80.367, -8.0615
41.799999, 80.332, -8.7004
42.500000, 80.286, -9.4037
43.099998, 80.248, -9.9739
43.700001, 80.212, -10.5333
44.400002, 80.169, -11.1679
45.000000, 80.129, -11.6689
45.500000, 80.095, -12.0614
46.200001, 80.050, -12.6165
46.799999, 80.012, -13.0971
47.500000, 79.974, -13.6190
48.200001, 79.956, -14.1280
48.700001, 79.948, -14.5214
49.400002, 79.926, -15.0894
50.000000, 79.895, -15.5446
50.799999, 79.852, -16.1461
51.500000, 79.814, -16.7333
52.200001, 79.771, -17.3277
53.000000, 79.726, -17.9514
53.799999, 79.687, -18.5719
54.500000, 79.646, -19.1239
55.200001, 79.599, -19.6357
56.000000, 79.547, -20.1708
57.000000, 79.485, -20.8452
58.000000, 79.414, -21.5234
59.000000, 79.339, -22.1525
60.000000, 79.268, -22.7757
60.799999, 79.211, -23.2696
61.500000, 79.162, -23.6637
62.200001, 79.113, -24.0229
63.000000, 79.056, -24.4213
64.000000, 78.981, -24.9398
65.000000, 78.908, -25.4869
66.000000, 78.842, -26.0088
67.000000, 78.778, -26.4685
68.000000, 78.706, -26.8982
69.000000, 78.628, -27.3070
70.000000, 78.555, -27.7059
71.000000, 78.488, -28.1150
72.000000, 78.426, -28.5283
73.000000, 78.364, -28.9089
74.000000, 78.298, -29.2557
75.000000, 78.224, -29.6280
76.199997, 78.133, -30.1770
77.500000, 78.036, -30.6193
78.800003, 77.960, -30.8256
80.000000, 77.888, -31.1319
81.199997, 77.812, -31.5089
82.500000, 77.726, -31.8699
83.800003, 77.639, -32.1752
85.000000, 77.564, -32.4829
86.199997, 77.492, -32.7575
87.500000, 77.408, -33.0422
88.500000, 77.341, -33.2899
90.000000, 77.245, -33.6548
91.199997, 77.173, -33.8832
92.500000, 77.101, -34.0939
93.800003, 77.030, -34.3035
95.000000, 76.960, -34.4995
96.199997, 76.882, -34.6727
97.500000, 76.799, -34.7974
98.800003, 76.732, -34.9391
100.000000, 76.673, -35.1107
101.500000, 76.589, -35.3110
103.000000, 76.500, -35.4577
104.400002, 76.425, -35.5982
106.000000, 76.343, -35.7448
107.500000, 76.265, -35.8606
109.000000, 76.187, -35.9405
110.599998, 76.107, -36.0308
112.000000, 76.032, -36.1530
113.800003, 75.935, -36.2937
115.000000, 75.878, -36.3335
117.199997, 75.781, -36.3701
118.000000, 75.744, -36.3796
120.599998, 75.618, -36.3557
122.000000, 75.550, -36.3288
124.099998, 75.460, -36.2738
125.000000, 75.423, -36.2301
126.500000, 75.362, -36.1397
128.000000, 75.301, -36.0496
131.500000, 75.153, -35.7600
132.000000, 75.133, -35.7010
134.000000, 75.056, -35.4334
136.000000, 74.995, -35.1236
138.000000, 74.951, -34.7818
140.000000, 74.923, -34.4402
143.000000, 74.870, -33.7575
145.000000, 74.912, -33.5395
147.500000, 75.024, -33.7395
150.000000, 75.072, -34.0788
152.500000, 75.124, -34.6028
155.000000, 75.106, -34.6974
157.500000, 75.014, -34.9365
160.000000, 74.966, -35.4149
162.500000, 74.926, -35.9806
165.000000, 74.853, -36.3657
167.500000, 74.787, -36.5266
170.000000, 74.750, -36.7243
172.500000, 74.702, -36.7806
175.000000, 74.635, -36.8614
177.500000, 74.559, -37.0124
180.000000, 74.497, -37.0423
182.500000, 74.442, -37.0063
185.000000, 74.392, -37.0312
187.500000, 74.344, -37.0489
190.000000, 74.298, -37.0457
192.500000, 74.257, -37.0065
195.000000, 74.221, -36.9228
197.500000, 74.188, -36.8343
200.000000, 74.157, -36.7758
203.000000, 74.118, -36.7182
206.000000, 74.083, -36.6676
209.000000, 74.058, -36.6181
212.000000, 74.039, -36.5739
214.000000, 74.030, -36.5436
218.000000, 74.010, -36.5458
220.000000, 73.999, -36.5655
224.000000, 73.987, -36.5900
227.000000, 73.981, -36.6200
230.000000, 73.972, -36.6671
233.000000, 73.966, -36.7707
236.000000, 73.959, -36.8862
240.000000, 73.937, -37.0214
243.000000, 73.921, -37.1114
247.000000, 73.906, -37.2510
250.000000, 73.892, -37.3404
254.000000, 73.867, -37.4399
258.000000, 73.849, -37.5721
262.000000, 73.826, -37.7264
265.000000, 73.804, -37.8373
269.000000, 73.782, -37.9559
272.000000, 73.769, -38.0234
276.000000, 73.750, -38.1448
280.000000, 73.738, -38.2592
285.000000, 73.728, -38.3616
290.000000, 73.713, -38.5133
295.000000, 73.696, -38.7091
300.000000, 73.673, -38.9063
304.000000, 73.664, -39.0629
307.000000, 73.660, -39.1778
311.000000, 73.649, -39.2978
315.000000, 73.635, -39.4085
320.000000, 73.621, -39.6344
325.000000, 73.616, -39.8770
330.000000, 73.613, -40.0878
335.000000, 73.609, -40.2497
340.000000, 73.596, -40.4313
345.000000, 73.580, -40.6377
350.000000, 73.569, -40.8255
355.000000, 73.560, -41.0361
360.000000, 73.550, -41.2702
365.000000, 73.538, -41.4708
370.000000, 73.530, -41.6602
375.000000, 73.525, -41.8669
382.000000, 73.507, -42.1938
387.000000, 73.497, -42.4258
395.000000, 73.480, -42.6266
400.000000, 73.463, -42.7672
406.000000, 73.446, -42.9771
412.000000, 73.436, -43.1600
418.000000, 73.427, -43.2705
425.000000, 73.426, -43.3781
431.000000, 73.437, -43.4314
437.000000, 73.463, -43.4936
444.000000, 73.509, -43.6679
450.000000, 73.553, -43.9950
455.000000, 73.585, -44.3560
462.000000, 73.610, -44.8787
468.000000, 73.617, -45.3747
475.000000, 73.623, -45.9497
482.000000, 73.618, -46.5036
487.000000, 73.612, -46.8253
494.000000, 73.598, -47.2135
500.000000, 73.583, -47.5949
508.000000, 73.566, -48.1133
515.000000, 73.557, -48.4859
522.000000, 73.545, -48.8352
530.000000, 73.530, -49.2345
538.000000, 73.520, -49.5953
545.000000, 73.509, -49.9294
552.000000, 73.497, -50.2618
560.000000, 73.486, -50.6209
570.000000, 73.470, -51.0934
580.000000, 73.456, -51.5499
590.000000, 73.445, -52.0102
600.000000, 73.438, -52.4659
608.000000, 73.431, -52.8146
615.000000, 73.426, -53.1160
622.000000, 73.423, -53.3938
630.000000, 73.417, -53.6975
640.000000, 73.405, -54.0761
650.000000, 73.399, -54.4756
660.000000, 73.397, -54.8492
670.000000, 73.389, -55.2435
680.000000, 73.381, -55.6738
690.000000, 73.372, -56.0740
700.000000, 73.363, -56.4067
710.000000, 73.357, -56.6997
720.000000, 73.360, -56.9910
730.000000, 73.369, -57.2979
740.000000, 73.373, -57.6001
750.000000, 73.375, -57.8558
762.000000, 73.381, -58.1646
775.000000, 73.397, -58.4836
788.000000, 73.417, -58.8194
800.000000, 73.432, -59.1255
812.000000, 73.451, -59.4255
825.000000, 73.476, -59.7441
838.000000, 73.506, -60.0584
850.000000, 73.535, -60.3405
862.000000, 73.571, -60.6392
875.000000, 73.616, -60.9633
885.000000, 73.655, -61.2074
900.000000, 73.718, -61.5745
912.000000, 73.771, -61.8866
925.000000, 73.828, -62.2181
938.000000, 73.890, -62.5427
950.000000, 73.954, -62.8586
962.000000, 74.023, -63.2180
975.000000, 74.100, -63.6325
988.000000, 74.184, -64.0743
1000.000000, 74.262, -64.5134
1015.000000, 74.356, -65.0245
1030.000000, 74.454, -65.5923
1044.000000, 74.556, -66.1863
1060.000000, 74.669, -66.8977
1075.000000, 74.771, -67.6032
1090.000000, 74.877, -68.3448
1106.000000, 74.987, -69.1561
1120.000000, 75.081, -69.8900
1138.000000, 75.203, -70.9098
1150.000000, 75.282, -71.6159
1172.000000, 75.422, -72.9907
1180.000000, 75.472, -73.5090
1206.000000, 75.629, -75.1909
1220.000000, 75.708, -76.0926
1241.000000, 75.821, -77.4652
1250.000000, 75.867, -78.0732
1265.000000, 75.941, -79.0837
1280.000000, 76.012, -80.0833
1315.000000, 76.171, -82.4688
1320.000000, 76.192, -82.8064
1340.000000, 76.272, -84.1636
1360.000000, 76.347, -85.5156
1380.000000, 76.419, -86.8319
1400.000000, 76.487, -88.1326
1430.000000, 76.584, -90.0446
1450.000000, 76.649, -91.3065
1475.000000, 76.727, -92.8739
1500.000000, 76.804, -94.4003
1525.000000, 76.879, -95.9076
1550.000000, 76.952, -97.3741
1575.000000, 77.031, -98.8510
1600.000000, 77.110, -100.3069
1625.000000, 77.188, -101.7441
1650.000000, 77.270, -103.1767
1675.000000, 77.356, -104.5813
1700.000000, 77.444, -105.9623
1725.000000, 77.530, -107.3491
1750.000000, 77.616, -108.7254
1775.000000, 77.705, -110.0993
1800.000000, 77.797, -111.4914
1825.000000, 77.895, -112.8847
1850.000000, 77.996, -114.2540
1875.000000, 78.097, -115.6018
1900.000000, 78.201, -116.9838
1925.000000, 78.310, -118.3768
1950.000000, 78.424, -119.7574
1975.000000, 78.540, -121.1535
2000.000000, 78.656, -122.5781
2030.000000, 78.794, -124.2700
2060.000000, 78.939, -125.9929
2090.000000, 79.089, -127.7301
2120.000000, 79.242, -129.4837
2140.000000, 79.347, -130.6779
2180.000000, 79.560, -133.1015
2200.000000, 79.668, -134.3301
2240.000000, 79.890, -136.8470
2270.000000, 80.061, -138.7863
2300.000000, 80.235, -140.7720
2330.000000, 80.410, -142.7971
2360.000000, 80.585, -144.8717
2400.000000, 80.820, -147.7017
2430.000000, 80.996, -149.8905
2470.000000, 81.234, -152.9095
2500.000000, 81.411, -155.2527
2540.000000, 81.642, -158.4722
2580.000000, 81.865, -161.7984
2620.000000, 82.080, -165.2498
2650.000000, 82.234, -167.9196
2690.000000, 82.429, -171.5729
2720.000000, 82.567, -174.3766
2760.000000, 82.734, -178.2046
2800.000000, 82.880, 177.8727
2850.000000, 83.033, 172.8573
2900.000000, 83.147, 167.7451
2950.000000, 83.219, 162.5846
3000.000000, 83.247, 157.4220
3040.000000, 83.237, 153.3333
3070.000000, 83.212, 150.2939
3110.000000, 83.156, 146.3038
3150.000000, 83.077, 142.4097
3200.000000, 82.950, 137.7001
3250.000000, 82.795, 133.1918
3300.000000, 82.620, 128.9209
3350.000000, 82.432, 124.8826
3400.000000, 82.237, 121.0447
3450.000000, 82.040, 117.4236
3500.000000, 81.844, 114.0052
3550.000000, 81.652, 110.7593
3600.000000, 81.468, 107.6577
3650.000000, 81.294, 104.6836
3700.000000, 81.128, 101.8174
3750.000000, 80.966, 99.0516
3820.000000, 80.752, 95.3113
3870.000000, 80.604, 92.7266
3950.000000, 80.376, 88.7900
4000.000000, 80.240, 86.4659
4060.000000, 80.085, 83.8257
4120.000000, 79.944, 81.3577
4180.000000, 79.825, 79.0410
4250.000000, 79.722, 76.4724
4310.000000, 79.666, 74.3344
4370.000000, 79.640, 72.2137
4440.000000, 79.645, 69.7074
4500.000000, 79.671, 67.5006
4550.000000, 79.709, 65.6012
4620.000000, 79.784, 62.8348
4680.000000, 79.866, 60.3574
4750.000000, 79.974, 57.3213
4820.000000, 80.095, 54.1218
4870.000000, 80.186, 51.7248
4940.000000, 80.314, 48.1857
5000.000000, 80.419, 44.9863
5080.000000, 80.549, 40.4711
5150.000000, 80.643, 36.3152
5220.000000, 80.709, 31.9847
5300.000000, 80.741, 26.8655
5380.000000, 80.719, 21.6367
5450.000000, 80.652, 17.0472
5520.000000, 80.542, 12.5170
5600.000000, 80.362, 7.4944
5700.000000, 80.066, 1.5609
5800.000000, 79.715, -3.8511
5900.000000, 79.329, -8.6760
6000.000000, 78.938, -12.8925
6080.000000, 78.632, -15.8459
6150.000000, 78.379, -18.1594
6220.000000, 78.147, -20.2363
6300.000000, 77.913, -22.3264
6400.000000, 77.673, -24.6193
6500.000000, 77.496, -26.6667
6600.000000, 77.389, -28.5706
6700.000000, 77.356, -30.3585
6800.000000, 77.403, -32.0742
6900.000000, 77.545, -33.9341
7000.000000, 77.762, -36.1672
7100.000000, 78.040, -38.7367
7200.000000, 78.382, -41.7397
7300.000000, 78.784, -45.3727
7400.000000, 79.221, -49.8152
7500.000000, 79.660, -55.2122
7620.000000, 80.122, -62.9578
7750.000000, 80.454, -72.7982
7880.000000, 80.513, -83.7689
8000.000000, 80.252, -94.1406
8120.000000, 79.709, -103.8409
8250.000000, 78.892, -112.9823
8380.000000, 77.940, -120.4336
8500.000000, 77.023, -125.8440
8620.000000, 76.128, -130.0337
8750.000000, 75.222, -133.4528
8850.000000, 74.581, -135.4155
9000.000000, 73.733, -137.4481
9120.000000, 73.191, -138.5151
9250.000000, 72.760, -139.5272
9380.000000, 72.449, -140.9828
9500.000000, 72.177, -142.8857
9620.000000, 71.857, -144.9043
9750.000000, 71.474, -146.6631
9880.000000, 71.122, -147.8397
10000.000000, 70.861, -148.6694
10150.000000, 70.598, -149.7701
10300.000000, 70.366, -150.6926
10440.000000, 70.225, -151.1287
10600.000000, 70.180, -151.6653
10750.000000, 70.212, -152.4983
10900.000000, 70.270, -153.7551
11060.000000, 70.313, -155.2823
11200.000000, 70.334, -156.3629
11380.000000, 70.431, -157.0880
11500.000000, 70.585, -157.3582
11720.000000, 71.067, -158.1860
11800.000000, 71.289, -158.7625
12060.000000, 72.096, -161.8074
12200.000000, 72.569, -164.1821
12410.000000, 73.289, -168.7028
12500.000000, 73.584, -170.9777
12650.000000, 74.045, -175.1809
12800.000000, 74.461, -179.8104
13150.000000, 75.231, 168.5358
13200.000000, 75.319, 166.8303
13400.000000, 75.630, 159.9781
13600.000000, 75.890, 153.0759
13800.000000, 76.106, 146.1967
14000.000000, 76.301, 139.4197
14300.000000, 76.615, 129.3013
14500.000000, 76.878, 122.3176
14750.000000, 77.253, 112.7504
15000.000000, 77.558, 101.7853
15250.000000, 77.653, 89.9521
15500.000000, 77.557, 78.3694
15750.000000, 77.423, 67.4261
16000.000000, 77.345, 56.2319
16250.000000, 77.235, 43.7120
16500.000000, 76.886, 29.8855
16750.000000, 76.143, 15.9101
17000.000000, 75.019, 3.2924
17250.000000, 73.648, -6.9979
17500.000000, 72.175, -14.8179
17750.000000, 70.717, -20.3896
18000.000000, 69.326, -23.7795
18250.000000, 68.073, -24.6764
18500.000000, 67.204, -21.9081
18750.000000, 67.475, -17.6414
19000.000000, 68.425, -22.7244
19250.000000, 68.578, -34.7716
19500.000000, 67.906, -45.9460
19750.000000, 67.018, -54.6637
20000.000000, 66.436, -62.6182
