* Measurement data measured by REW V5.31.3
* Source: Input device not selected, no input selected, L, volume: no control
* Format: 256k Log Swept Sine, 1 sweep at -12.0 dBFS with no timing reference
* Dated: Oct 17, 2024 9:54:21 PM
* REW Settings:
*  C-weighting compensation: Off
*  Target level: 75.0 dB
* Note: 
* Measurement: Studio 4 (Spring M) L
* Smoothing: 1/24 octave
* Frequency Step: 1/48 octave
* Start Frequency: 20.300 Hz
*
* Freq(Hz), SPL(dB), Phase(degrees)
20.299999, 78.619, 35.2373
20.600000, 78.637, 34.6309
20.900000, 78.632, 33.8671
21.200001, 78.606, 33.0356
21.400000, 78.589, 32.4813
21.799999, 78.589, 31.4254
22.000000, 78.622, 30.9163
22.400000, 78.768, 29.8450
22.700001, 78.927, 28.9225
23.000000, 79.087, 27.8970
23.299999, 79.208, 26.8553
23.600000, 79.262, 25.9403
24.000000, 79.221, 25.1637
24.299999, 79.131, 24.9992
24.700001, 78.997, 25.2045
25.000000, 78.926, 25.4245
25.400000, 78.895, 25.3879
25.799999, 78.914, 24.7589
26.200001, 78.945, 23.6930
26.500000, 78.962, 22.8424
26.900000, 78.977, 21.9172
27.200001, 78.990, 21.4508
27.600000, 79.012, 21.0515
28.000000, 79.036, 20.7110
28.500000, 79.048, 20.1251
29.000000, 79.040, 19.3207
29.500000, 79.032, 18.4190
30.000000, 79.043, 17.5320
30.400000, 79.058, 16.8702
30.700001, 79.064, 16.4119
31.100000, 79.059, 15.8552
31.500000, 79.042, 15.3490
32.000000, 79.022, 14.7380
32.500000, 79.022, 14.0896
33.000000, 79.042, 13.3824
33.500000, 79.064, 12.6572
34.000000, 79.057, 11.9894
34.500000, 79.013, 11.4463
35.000000, 78.948, 11.0380
35.500000, 78.899, 10.6883
36.000000, 78.887, 10.2823
36.500000, 78.901, 9.7703
37.000000, 78.914, 9.2083
37.500000, 78.906, 8.6821
38.200001, 78.870, 8.0145
38.700001, 78.847, 7.4953
39.500000, 78.830, 6.5475
40.000000, 78.823, 6.0119
40.599998, 78.808, 5.5681
41.200001, 78.787, 5.2917
41.799999, 78.770, 4.9568
42.500000, 78.747, 4.2580
43.099998, 78.703, 3.5027
43.700001, 78.632, 2.8594
44.400002, 78.547, 2.3506
45.000000, 78.494, 1.9388
45.500000, 78.462, 1.5132
46.200001, 78.421, 0.8751
46.799999, 78.389, 0.4216
47.500000, 78.364, -0.0200
48.200001, 78.343, -0.5013
48.700001, 78.325, -0.8620
49.400002, 78.295, -1.2983
50.000000, 78.267, -1.6001
50.799999, 78.212, -2.0091
51.500000, 78.151, -2.3836
52.200001, 78.105, -2.7098
53.000000, 78.085, -3.0754
53.799999, 78.058, -3.5176
54.500000, 78.006, -3.9012
55.200001, 77.952, -4.2218
56.000000, 77.913, -4.5631
57.000000, 77.862, -4.9893
58.000000, 77.784, -5.3818
59.000000, 77.715, -5.8275
60.000000, 77.654, -6.2483
60.799999, 77.604, -6.5364
61.500000, 77.557, -6.8045
62.200001, 77.511, -7.0776
63.000000, 77.466, -7.3651
64.000000, 77.408, -7.7190
65.000000, 77.336, -8.0401
66.000000, 77.264, -8.2741
67.000000, 77.195, -8.5489
68.000000, 77.115, -8.8529
69.000000, 77.040, -9.0703
70.000000, 76.966, -9.2514
71.000000, 76.897, -9.3907
72.000000, 76.854, -9.5567
73.000000, 76.806, -9.8056
74.000000, 76.735, -10.0240
75.000000, 76.671, -10.1743
76.199997, 76.601, -10.2814
77.500000, 76.509, -10.4162
78.800003, 76.421, -10.6663
80.000000, 76.349, -10.8502
81.199997, 76.265, -10.9625
82.500000, 76.178, -10.9664
83.800003, 76.107, -10.9791
85.000000, 76.041, -11.0574
86.199997, 75.968, -11.1111
87.500000, 75.890, -11.1638
88.500000, 75.837, -11.2580
90.000000, 75.748, -11.3515
91.199997, 75.674, -11.3941
92.500000, 75.597, -11.4141
93.800003, 75.528, -11.3324
95.000000, 75.466, -11.2741
96.199997, 75.395, -11.2674
97.500000, 75.317, -11.2497
98.800003, 75.251, -11.1875
100.000000, 75.189, -11.0706
101.500000, 75.102, -10.8810
103.000000, 75.021, -10.7717
104.400002, 74.955, -10.6949
106.000000, 74.884, -10.5995
107.500000, 74.817, -10.5008
109.000000, 74.746, -10.3661
110.599998, 74.666, -10.2304
112.000000, 74.590, -10.1309
113.800003, 74.502, -9.9810
115.000000, 74.447, -9.7948
117.199997, 74.348, -9.4781
118.000000, 74.311, -9.3836
120.599998, 74.202, -9.0410
122.000000, 74.149, -8.8121
124.099998, 74.059, -8.4965
125.000000, 74.021, -8.3786
126.500000, 73.962, -8.1342
128.000000, 73.906, -7.8765
131.500000, 73.766, -7.3427
132.000000, 73.745, -7.2683
134.000000, 73.664, -6.9701
136.000000, 73.594, -6.6416
138.000000, 73.520, -6.2285
140.000000, 73.451, -5.7987
143.000000, 73.339, -5.2317
145.000000, 73.270, -4.7711
147.500000, 73.185, -4.1549
150.000000, 73.097, -3.5157
152.500000, 73.006, -2.8453
155.000000, 72.923, -2.1394
157.500000, 72.844, -1.2616
160.000000, 72.778, -0.3320
162.500000, 72.732, 0.7755
165.000000, 72.726, 2.0093
167.500000, 72.784, 3.1016
170.000000, 72.891, 4.0024
172.500000, 73.018, 4.5414
175.000000, 73.124, 4.5686
177.500000, 73.188, 4.2844
180.000000, 73.200, 3.9782
182.500000, 73.164, 3.7740
185.000000, 73.112, 3.7116
187.500000, 73.056, 3.7409
190.000000, 72.998, 3.9218
192.500000, 72.950, 4.1542
195.000000, 72.900, 4.4217
197.500000, 72.849, 4.7265
200.000000, 72.805, 5.0346
203.000000, 72.757, 5.4206
206.000000, 72.712, 5.8433
209.000000, 72.665, 6.3108
212.000000, 72.618, 6.7662
214.000000, 72.591, 7.0751
218.000000, 72.544, 7.7142
220.000000, 72.527, 8.0175
224.000000, 72.491, 8.6807
227.000000, 72.456, 9.1583
230.000000, 72.422, 9.6015
233.000000, 72.394, 10.0613
236.000000, 72.373, 10.5881
240.000000, 72.357, 11.2077
243.000000, 72.342, 11.6009
247.000000, 72.311, 12.1607
250.000000, 72.293, 12.6030
254.000000, 72.275, 13.1969
258.000000, 72.258, 13.8295
262.000000, 72.243, 14.4184
265.000000, 72.235, 14.8127
269.000000, 72.221, 15.2930
272.000000, 72.206, 15.7004
276.000000, 72.192, 16.2596
280.000000, 72.179, 16.7546
285.000000, 72.171, 17.4155
290.000000, 72.158, 18.1418
295.000000, 72.146, 18.7688
300.000000, 72.132, 19.3541
304.000000, 72.126, 19.8960
307.000000, 72.126, 20.2700
311.000000, 72.127, 20.7351
315.000000, 72.125, 21.1989
320.000000, 72.119, 21.7698
325.000000, 72.111, 22.2549
330.000000, 72.107, 22.7468
335.000000, 72.094, 23.3199
340.000000, 72.083, 23.8831
345.000000, 72.077, 24.3962
350.000000, 72.066, 24.8977
355.000000, 72.057, 25.4247
360.000000, 72.049, 25.9327
365.000000, 72.039, 26.4146
370.000000, 72.025, 26.9309
375.000000, 72.010, 27.4693
382.000000, 71.996, 28.2143
387.000000, 71.994, 28.7246
395.000000, 71.985, 29.5586
400.000000, 71.972, 30.0229
406.000000, 71.954, 30.6280
412.000000, 71.938, 31.3039
418.000000, 71.922, 31.9543
425.000000, 71.909, 32.6118
431.000000, 71.896, 33.1984
437.000000, 71.882, 33.8120
444.000000, 71.855, 34.5438
450.000000, 71.824, 35.1659
455.000000, 71.802, 35.7265
462.000000, 71.784, 36.6153
468.000000, 71.777, 37.4488
475.000000, 71.777, 38.4814
482.000000, 71.797, 39.5742
487.000000, 71.832, 40.2905
494.000000, 71.900, 41.0751
500.000000, 71.961, 41.5260
508.000000, 72.025, 41.9423
515.000000, 72.052, 42.2721
522.000000, 72.059, 42.5886
530.000000, 72.054, 43.0532
538.000000, 72.039, 43.6275
545.000000, 72.022, 44.1647
552.000000, 72.006, 44.7073
560.000000, 71.986, 45.3376
570.000000, 71.963, 46.1431
580.000000, 71.958, 47.0373
590.000000, 71.945, 47.9398
600.000000, 71.925, 48.7832
608.000000, 71.914, 49.4539
615.000000, 71.906, 50.0559
622.000000, 71.898, 50.6856
630.000000, 71.883, 51.4366
640.000000, 71.875, 52.3511
650.000000, 71.869, 53.2191
660.000000, 71.861, 54.1551
670.000000, 71.855, 55.0934
680.000000, 71.847, 55.9955
690.000000, 71.843, 56.8971
700.000000, 71.845, 57.8199
710.000000, 71.839, 58.7415
720.000000, 71.832, 59.6832
730.000000, 71.835, 60.6467
740.000000, 71.844, 61.6156
750.000000, 71.843, 62.5454
762.000000, 71.838, 63.6474
775.000000, 71.837, 64.9233
788.000000, 71.844, 66.1830
800.000000, 71.862, 67.3964
812.000000, 71.882, 68.6153
825.000000, 71.901, 69.9694
838.000000, 71.926, 71.2826
850.000000, 71.966, 72.4398
862.000000, 72.006, 73.6508
875.000000, 72.045, 74.9261
885.000000, 72.080, 75.8680
900.000000, 72.149, 77.3248
912.000000, 72.209, 78.4877
925.000000, 72.276, 79.6984
938.000000, 72.339, 80.9193
950.000000, 72.398, 82.0304
962.000000, 72.468, 83.1081
975.000000, 72.550, 84.2104
988.000000, 72.640, 85.2733
1000.000000, 72.725, 86.2435
1015.000000, 72.825, 87.4757
1030.000000, 72.934, 88.6267
1044.000000, 73.036, 89.6406
1060.000000, 73.161, 90.7484
1075.000000, 73.278, 91.7464
1090.000000, 73.391, 92.6957
1106.000000, 73.511, 93.6426
1120.000000, 73.613, 94.4141
1138.000000, 73.744, 95.3472
1150.000000, 73.830, 95.9356
1172.000000, 73.986, 96.9909
1180.000000, 74.042, 97.3569
1206.000000, 74.208, 98.4272
1220.000000, 74.290, 98.9731
1241.000000, 74.409, 99.7981
1250.000000, 74.458, 100.1405
1265.000000, 74.538, 100.6886
1280.000000, 74.615, 101.2238
1315.000000, 74.778, 102.4536
1320.000000, 74.800, 102.6220
1340.000000, 74.882, 103.3123
1360.000000, 74.963, 104.0187
1380.000000, 75.041, 104.7092
1400.000000, 75.109, 105.3880
1430.000000, 75.211, 106.4348
1450.000000, 75.277, 107.1357
1475.000000, 75.356, 108.0383
1500.000000, 75.430, 108.9165
1525.000000, 75.504, 109.8195
1550.000000, 75.582, 110.7515
1575.000000, 75.653, 111.6971
1600.000000, 75.724, 112.6771
1625.000000, 75.798, 113.6224
1650.000000, 75.877, 114.5510
1675.000000, 75.957, 115.5118
1700.000000, 76.041, 116.4847
1725.000000, 76.128, 117.4345
1750.000000, 76.212, 118.3854
1775.000000, 76.298, 119.3317
1800.000000, 76.387, 120.2292
1825.000000, 76.479, 121.1393
1850.000000, 76.575, 122.0457
1875.000000, 76.675, 122.9444
1900.000000, 76.775, 123.8242
1925.000000, 76.876, 124.6914
1950.000000, 76.980, 125.5580
1975.000000, 77.088, 126.3949
2000.000000, 77.201, 127.2049
2030.000000, 77.336, 128.1821
2060.000000, 77.472, 129.0992
2090.000000, 77.612, 129.9377
2120.000000, 77.760, 130.7664
2140.000000, 77.860, 131.3183
2180.000000, 78.061, 132.3459
2200.000000, 78.164, 132.8161
2240.000000, 78.375, 133.7016
2270.000000, 78.537, 134.3274
2300.000000, 78.702, 134.8902
2330.000000, 78.867, 135.3713
2360.000000, 79.032, 135.8048
2400.000000, 79.255, 136.3020
2430.000000, 79.427, 136.5908
2470.000000, 79.655, 136.8416
2500.000000, 79.824, 136.9446
2540.000000, 80.043, 136.9819
2580.000000, 80.255, 136.8966
2620.000000, 80.462, 136.6527
2650.000000, 80.611, 136.3736
2690.000000, 80.796, 135.8812
2720.000000, 80.924, 135.4303
2760.000000, 81.080, 134.7162
2800.000000, 81.215, 133.8891
2850.000000, 81.353, 132.7073
2900.000000, 81.455, 131.3885
2950.000000, 81.512, 130.0121
3000.000000, 81.524, 128.6278
3040.000000, 81.499, 127.5365
3070.000000, 81.462, 126.7283
3110.000000, 81.392, 125.6961
3150.000000, 81.299, 124.7515
3200.000000, 81.155, 123.7255
3250.000000, 80.990, 122.8691
3300.000000, 80.807, 122.1969
3350.000000, 80.610, 121.7180
3400.000000, 80.407, 121.3963
3450.000000, 80.199, 121.2243
3500.000000, 79.989, 121.1709
3550.000000, 79.775, 121.2714
3600.000000, 79.558, 121.5217
3650.000000, 79.344, 121.9129
3700.000000, 79.135, 122.4343
3750.000000, 78.932, 123.0845
3820.000000, 78.661, 124.1645
3870.000000, 78.476, 125.0358
3950.000000, 78.207, 126.6140
4000.000000, 78.061, 127.7065
4060.000000, 77.898, 129.0771
4120.000000, 77.753, 130.5189
4180.000000, 77.631, 132.0170
4250.000000, 77.516, 133.7716
4310.000000, 77.438, 135.2680
4370.000000, 77.381, 136.7517
4440.000000, 77.340, 138.4589
4500.000000, 77.321, 139.8698
4550.000000, 77.316, 140.9886
4620.000000, 77.333, 142.4310
4680.000000, 77.365, 143.5420
4750.000000, 77.416, 144.6949
4820.000000, 77.474, 145.6717
4870.000000, 77.520, 146.2543
4940.000000, 77.587, 146.8759
5000.000000, 77.641, 147.2430
5080.000000, 77.706, 147.4893
5150.000000, 77.742, 147.4684
5220.000000, 77.755, 147.2508
5300.000000, 77.735, 146.7753
5380.000000, 77.671, 146.1220
5450.000000, 77.569, 145.4746
5520.000000, 77.421, 144.8186
5600.000000, 77.196, 144.1080
5700.000000, 76.838, 143.4208
5800.000000, 76.402, 143.1033
5900.000000, 75.907, 143.2852
6000.000000, 75.376, 144.0365
6080.000000, 74.938, 145.0587
6150.000000, 74.554, 146.2415
6220.000000, 74.178, 147.7195
6300.000000, 73.763, 149.7507
6400.000000, 73.275, 152.7460
6500.000000, 72.837, 156.1405
6600.000000, 72.452, 159.9286
6700.000000, 72.136, 164.0405
6800.000000, 71.899, 168.3790
6900.000000, 71.738, 172.8818
7000.000000, 71.663, 177.4762
7100.000000, 71.669, -177.9665
7200.000000, 71.758, -173.5269
7300.000000, 71.927, -169.2831
7400.000000, 72.173, -165.2813
7500.000000, 72.491, -161.6003
7620.000000, 72.962, -157.5983
7750.000000, 73.604, -153.9937
7880.000000, 74.360, -151.6752
8000.000000, 75.090, -150.6884
8120.000000, 75.844, -150.6814
8250.000000, 76.677, -152.1753
8380.000000, 77.455, -155.5721
8500.000000, 78.019, -160.4423
8620.000000, 78.327, -166.6885
8750.000000, 78.287, -174.1772
8850.000000, 77.978, -179.7330
9000.000000, 77.129, 173.4353
9120.000000, 76.236, 169.8889
9250.000000, 75.206, 168.1551
9380.000000, 74.258, 168.2607
9500.000000, 73.544, 169.1299
9620.000000, 72.935, 169.8805
9750.000000, 72.267, 170.5131
9880.000000, 71.541, 171.5991
10000.000000, 70.873, 173.3475
10150.000000, 70.099, 176.4754
10300.000000, 69.426, -179.6902
10440.000000, 68.915, -175.8240
10600.000000, 68.429, -171.3333
10750.000000, 68.043, -166.8905
10900.000000, 67.749, -162.2147
11060.000000, 67.572, -157.0601
11200.000000, 67.533, -152.7336
11380.000000, 67.579, -147.9157
11500.000000, 67.628, -145.1003
11720.000000, 67.738, -140.2405
11800.000000, 67.791, -138.5057
12060.000000, 68.055, -132.8864
12200.000000, 68.267, -130.0385
12410.000000, 68.653, -126.2979
12500.000000, 68.843, -124.9028
12650.000000, 69.191, -122.8484
12800.000000, 69.580, -121.1531
13150.000000, 70.639, -119.0498
13200.000000, 70.802, -119.0102
13400.000000, 71.463, -119.5636
13600.000000, 72.111, -121.4568
13800.000000, 72.679, -124.7921
14000.000000, 73.084, -129.3724
14300.000000, 73.254, -137.3546
14500.000000, 73.088, -142.5278
14750.000000, 72.662, -148.0972
15000.000000, 72.100, -152.3456
15250.000000, 71.496, -155.3580
15500.000000, 70.913, -157.2433
15750.000000, 70.416, -158.0262
16000.000000, 70.069, -157.9290
16250.000000, 69.960, -157.4630
16500.000000, 70.143, -157.1948
16750.000000, 70.624, -158.0724
17000.000000, 71.338, -161.1903
17250.000000, 72.125, -167.5268
17500.000000, 72.716, -177.5381
17750.000000, 72.760, 169.5938
18000.000000, 71.986, 156.3061
18250.000000, 70.409, 146.3696
18500.000000, 68.585, 143.5226
18750.000000, 67.811, 144.9700
19000.000000, 67.847, 139.1657
19250.000000, 67.116, 128.5177
19500.000000, 65.574, 119.7649
19750.000000, 63.865, 114.0634
20000.000000, 62.720, 110.6643
