* Measurement data measured by REW V5.31.3
* Source: Input device not selected, no input selected, L, volume: no control
* Format: 256k Log Swept Sine, 1 sweep at -12.0 dBFS with no timing reference
* Dated: Aug 25, 2024 1:56:58 AM
* REW Settings:
*  C-weighting compensation: Off
*  Target level: 75.0 dB
* Note: ; 
* Measurement: Studio 4 (Spring)
* Smoothing: 1/24 octave
* Frequency Step: 1/48 octave
* Start Frequency: 20.300 Hz
*
* Freq(Hz), SPL(dB), Phase(degrees)
20.299999, 80.056, 25.0193
20.600000, 80.050, 24.3742
20.900000, 80.037, 23.6784
21.200001, 80.021, 22.9748
21.400000, 80.014, 22.5006
21.799999, 80.011, 21.5402
22.000000, 80.016, 21.0579
22.400000, 80.038, 20.1057
22.700001, 80.060, 19.4193
23.000000, 80.082, 18.7705
23.299999, 80.102, 18.1656
23.600000, 80.118, 17.6015
24.000000, 80.135, 16.8878
24.299999, 80.147, 16.3529
24.700001, 80.161, 15.5995
25.000000, 80.170, 14.9908
25.400000, 80.179, 14.1319
25.799999, 80.184, 13.2594
26.200001, 80.187, 12.4207
26.500000, 80.190, 11.8285
26.900000, 80.197, 11.0823
27.200001, 80.203, 10.5416
27.600000, 80.211, 9.8270
28.000000, 80.217, 9.1123
28.500000, 80.218, 8.2287
29.000000, 80.216, 7.3730
29.500000, 80.212, 6.5488
30.000000, 80.205, 5.7490
30.400000, 80.195, 5.1230
30.700001, 80.187, 4.6603
31.100000, 80.174, 4.0491
31.500000, 80.161, 3.4393
32.000000, 80.148, 2.6740
32.500000, 80.137, 1.9116
33.000000, 80.126, 1.1698
33.500000, 80.112, 0.4625
34.000000, 80.097, -0.2132
34.500000, 80.080, -0.8750
35.000000, 80.061, -1.5399
35.500000, 80.040, -2.2079
36.000000, 80.016, -2.8608
36.500000, 79.989, -3.4771
37.000000, 79.961, -4.0526
37.500000, 79.933, -4.6063
38.200001, 79.893, -5.3968
38.700001, 79.864, -5.9873
39.500000, 79.816, -6.9347
40.000000, 79.788, -7.4944
40.599998, 79.759, -8.1240
41.200001, 79.731, -8.7314
41.799999, 79.697, -9.3421
42.500000, 79.647, -10.0547
43.099998, 79.600, -10.6419
43.700001, 79.556, -11.2115
44.400002, 79.510, -11.8905
45.000000, 79.467, -12.4745
45.500000, 79.427, -12.9200
46.200001, 79.372, -13.4518
46.799999, 79.335, -13.8897
47.500000, 79.297, -14.4874
48.200001, 79.246, -15.1479
48.700001, 79.200, -15.5879
49.400002, 79.134, -16.1194
50.000000, 79.078, -16.5295
50.799999, 79.006, -17.0779
51.500000, 78.944, -17.5744
52.200001, 78.883, -18.0824
53.000000, 78.817, -18.6598
53.799999, 78.750, -19.2074
54.500000, 78.690, -19.6578
55.200001, 78.629, -20.0889
56.000000, 78.558, -20.5628
57.000000, 78.469, -21.1359
58.000000, 78.376, -21.6744
59.000000, 78.273, -22.1387
60.000000, 78.160, -22.5575
60.799999, 78.069, -22.9040
61.500000, 77.989, -23.2091
62.200001, 77.910, -23.4933
63.000000, 77.818, -23.7774
64.000000, 77.704, -24.0729
65.000000, 77.591, -24.3260
66.000000, 77.459, -24.4850
67.000000, 77.315, -24.5351
68.000000, 77.180, -24.5662
69.000000, 77.053, -24.5785
70.000000, 76.915, -24.5134
71.000000, 76.786, -24.2842
72.000000, 76.684, -23.8577
73.000000, 76.544, -23.2601
74.000000, 76.353, -22.4645
75.000000, 76.215, -21.4799
76.199997, 76.086, -19.3710
77.500000, 75.835, -16.8608
78.800003, 75.459, -15.2383
80.000000, 76.078, -11.7647
81.199997, 77.246, -10.5459
82.500000, 78.027, -11.4741
83.800003, 78.466, -14.4605
85.000000, 78.686, -17.7657
86.199997, 78.744, -20.6736
87.500000, 78.682, -23.4019
88.500000, 78.594, -25.1613
90.000000, 78.398, -27.2491
91.199997, 78.225, -28.5272
92.500000, 78.060, -29.5585
93.800003, 77.917, -30.3225
95.000000, 77.803, -30.8883
96.199997, 77.670, -31.5099
97.500000, 77.498, -32.1152
98.800003, 77.369, -32.5631
100.000000, 77.277, -32.9158
101.500000, 77.131, -33.1923
103.000000, 76.988, -33.3155
104.400002, 76.880, -33.4231
106.000000, 76.772, -33.5857
107.500000, 76.675, -33.8090
109.000000, 76.589, -34.0127
110.599998, 76.504, -34.1887
112.000000, 76.432, -34.3113
113.800003, 76.350, -34.5057
115.000000, 76.298, -34.6487
117.199997, 76.190, -34.8681
118.000000, 76.148, -34.9802
120.599998, 76.028, -35.2866
122.000000, 75.969, -35.3903
124.099998, 75.871, -35.5683
125.000000, 75.832, -35.6106
126.500000, 75.766, -35.6826
128.000000, 75.696, -35.7981
131.500000, 75.541, -35.9817
132.000000, 75.522, -35.9945
134.000000, 75.455, -36.0482
136.000000, 75.396, -36.1450
138.000000, 75.337, -36.3061
140.000000, 75.266, -36.4864
143.000000, 75.144, -36.6357
145.000000, 75.079, -36.6596
147.500000, 75.009, -36.7347
150.000000, 74.941, -36.7695
152.500000, 74.869, -36.8499
155.000000, 74.797, -37.0286
157.500000, 74.743, -37.0228
160.000000, 74.628, -37.1157
162.500000, 74.520, -37.0905
165.000000, 74.442, -36.9305
167.500000, 74.367, -36.8515
170.000000, 74.284, -36.8011
172.500000, 74.206, -36.6841
175.000000, 74.133, -36.4958
177.500000, 74.062, -36.3246
180.000000, 73.992, -36.1663
182.500000, 73.920, -35.9654
185.000000, 73.844, -35.6962
187.500000, 73.777, -35.3280
190.000000, 73.705, -34.8736
192.500000, 73.635, -34.3384
195.000000, 73.586, -33.5983
197.500000, 73.566, -32.6823
200.000000, 73.591, -31.6742
203.000000, 73.707, -30.5346
206.000000, 73.909, -29.8902
209.000000, 74.131, -30.0284
212.000000, 74.297, -30.7999
214.000000, 74.366, -31.4733
218.000000, 74.412, -32.8149
220.000000, 74.400, -33.3846
224.000000, 74.346, -34.2550
227.000000, 74.299, -34.7464
230.000000, 74.255, -35.1070
233.000000, 74.211, -35.3736
236.000000, 74.168, -35.6165
240.000000, 74.120, -35.9170
243.000000, 74.082, -36.0659
247.000000, 74.030, -36.2234
250.000000, 73.998, -36.3465
254.000000, 73.958, -36.5182
258.000000, 73.927, -36.6330
262.000000, 73.903, -36.7256
265.000000, 73.887, -36.7979
269.000000, 73.864, -36.9452
272.000000, 73.845, -37.0796
276.000000, 73.826, -37.2195
280.000000, 73.809, -37.3396
285.000000, 73.788, -37.4749
290.000000, 73.766, -37.6330
295.000000, 73.750, -37.8184
300.000000, 73.731, -37.9795
304.000000, 73.715, -38.0995
307.000000, 73.703, -38.2321
311.000000, 73.688, -38.4170
315.000000, 73.680, -38.5691
320.000000, 73.672, -38.7590
325.000000, 73.661, -38.9335
330.000000, 73.651, -39.1048
335.000000, 73.643, -39.2997
340.000000, 73.633, -39.5101
345.000000, 73.625, -39.6999
350.000000, 73.619, -39.9047
355.000000, 73.610, -40.1467
360.000000, 73.602, -40.3916
365.000000, 73.595, -40.6064
370.000000, 73.592, -40.7847
375.000000, 73.585, -41.0151
382.000000, 73.570, -41.3846
387.000000, 73.558, -41.6267
395.000000, 73.548, -41.9267
400.000000, 73.544, -42.1350
406.000000, 73.542, -42.4192
412.000000, 73.539, -42.7289
418.000000, 73.530, -43.0272
425.000000, 73.517, -43.3570
431.000000, 73.509, -43.6720
437.000000, 73.503, -43.9360
444.000000, 73.491, -44.2497
450.000000, 73.482, -44.5232
455.000000, 73.480, -44.7354
462.000000, 73.475, -45.0540
468.000000, 73.467, -45.3369
475.000000, 73.454, -45.6350
482.000000, 73.442, -45.9268
487.000000, 73.437, -46.1577
494.000000, 73.431, -46.5369
500.000000, 73.423, -46.8118
508.000000, 73.417, -47.1345
515.000000, 73.412, -47.4363
522.000000, 73.404, -47.7296
530.000000, 73.398, -48.0967
538.000000, 73.391, -48.5210
545.000000, 73.382, -48.8486
552.000000, 73.372, -49.1133
560.000000, 73.361, -49.3829
570.000000, 73.347, -49.8311
580.000000, 73.347, -50.2861
590.000000, 73.342, -50.6968
600.000000, 73.328, -51.0749
608.000000, 73.320, -51.3920
615.000000, 73.320, -51.6895
622.000000, 73.319, -51.9823
630.000000, 73.313, -52.3103
640.000000, 73.296, -52.7363
650.000000, 73.278, -53.1381
660.000000, 73.263, -53.4846
670.000000, 73.251, -53.7541
680.000000, 73.246, -54.0262
690.000000, 73.249, -54.3523
700.000000, 73.250, -54.6634
710.000000, 73.249, -54.9539
720.000000, 73.253, -55.2391
730.000000, 73.258, -55.5167
740.000000, 73.261, -55.7889
750.000000, 73.267, -56.0471
762.000000, 73.276, -56.3629
775.000000, 73.286, -56.6772
788.000000, 73.303, -56.9863
800.000000, 73.321, -57.2787
812.000000, 73.338, -57.5563
825.000000, 73.361, -57.8417
838.000000, 73.394, -58.1338
850.000000, 73.431, -58.3856
862.000000, 73.468, -58.6488
875.000000, 73.509, -58.9425
885.000000, 73.543, -59.1919
900.000000, 73.601, -59.5405
912.000000, 73.649, -59.8105
925.000000, 73.707, -60.0868
938.000000, 73.771, -60.3748
950.000000, 73.833, -60.6884
962.000000, 73.897, -61.0214
975.000000, 73.973, -61.3893
988.000000, 74.056, -61.7792
1000.000000, 74.132, -62.1693
1015.000000, 74.220, -62.6793
1030.000000, 74.313, -63.2258
1044.000000, 74.408, -63.7782
1060.000000, 74.518, -64.4615
1075.000000, 74.623, -65.1345
1090.000000, 74.723, -65.8479
1106.000000, 74.823, -66.6423
1120.000000, 74.915, -67.3661
1138.000000, 75.036, -68.3440
1150.000000, 75.113, -69.0315
1172.000000, 75.247, -70.3271
1180.000000, 75.296, -70.8043
1206.000000, 75.450, -72.3884
1220.000000, 75.525, -73.2484
1241.000000, 75.631, -74.5711
1250.000000, 75.677, -75.1427
1265.000000, 75.750, -76.1059
1280.000000, 75.819, -77.0752
1315.000000, 75.964, -79.3386
1320.000000, 75.983, -79.6598
1340.000000, 76.059, -80.9254
1360.000000, 76.135, -82.1756
1380.000000, 76.205, -83.4240
1400.000000, 76.269, -84.6820
1430.000000, 76.364, -86.5091
1450.000000, 76.425, -87.6971
1475.000000, 76.495, -89.1716
1500.000000, 76.568, -90.6474
1525.000000, 76.640, -92.0779
1550.000000, 76.715, -93.4509
1575.000000, 76.789, -94.8468
1600.000000, 76.865, -96.2304
1625.000000, 76.941, -97.5861
1650.000000, 77.022, -98.9369
1675.000000, 77.103, -100.2589
1700.000000, 77.182, -101.5724
1725.000000, 77.263, -102.8764
1750.000000, 77.348, -104.1732
1775.000000, 77.433, -105.4817
1800.000000, 77.521, -106.7787
1825.000000, 77.612, -108.0765
1850.000000, 77.704, -109.3645
1875.000000, 77.800, -110.6485
1900.000000, 77.899, -111.9347
1925.000000, 78.002, -113.2254
1950.000000, 78.106, -114.5148
1975.000000, 78.214, -115.8093
2000.000000, 78.325, -117.1257
2030.000000, 78.459, -118.7256
2060.000000, 78.598, -120.3390
2090.000000, 78.743, -121.9860
2120.000000, 78.890, -123.6512
2140.000000, 78.989, -124.7733
2180.000000, 79.193, -127.0252
2200.000000, 79.296, -128.1564
2240.000000, 79.509, -130.4861
2270.000000, 79.674, -132.2867
2300.000000, 79.844, -134.1311
2330.000000, 80.017, -136.0156
2360.000000, 80.192, -137.9579
2400.000000, 80.425, -140.6385
2430.000000, 80.599, -142.7124
2470.000000, 80.831, -145.5728
2500.000000, 81.003, -147.7906
2540.000000, 81.226, -150.8526
2580.000000, 81.444, -154.0270
2620.000000, 81.653, -157.3121
2650.000000, 81.803, -159.8498
2690.000000, 81.994, -163.3161
2720.000000, 82.128, -165.9880
2760.000000, 82.294, -169.6503
2800.000000, 82.443, -173.3927
2850.000000, 82.597, -178.1763
2900.000000, 82.710, 176.9144
2950.000000, 82.779, 171.9340
3000.000000, 82.803, 166.9533
3040.000000, 82.791, 162.9933
3070.000000, 82.765, 160.0595
3110.000000, 82.707, 156.2121
3150.000000, 82.627, 152.4675
3200.000000, 82.498, 147.9666
3250.000000, 82.345, 143.6583
3300.000000, 82.176, 139.5621
3350.000000, 81.993, 135.6780
3400.000000, 81.801, 131.9663
3450.000000, 81.602, 128.4427
3500.000000, 81.400, 125.1107
3550.000000, 81.198, 121.9573
3600.000000, 80.998, 118.9734
3650.000000, 80.803, 116.1563
3700.000000, 80.613, 113.4987
3750.000000, 80.432, 110.9650
3820.000000, 80.194, 107.6186
3870.000000, 80.036, 105.3707
3950.000000, 79.806, 101.9710
4000.000000, 79.676, 99.9514
4060.000000, 79.539, 97.6267
4120.000000, 79.417, 95.3961
4180.000000, 79.315, 93.2693
4250.000000, 79.224, 90.8883
4310.000000, 79.173, 88.8882
4370.000000, 79.147, 86.9208
4440.000000, 79.143, 84.6229
4500.000000, 79.162, 82.6058
4550.000000, 79.195, 80.8659
4620.000000, 79.263, 78.3392
4680.000000, 79.335, 76.0835
4750.000000, 79.432, 73.3179
4820.000000, 79.544, 70.3888
4870.000000, 79.631, 68.1911
4940.000000, 79.754, 64.9387
5000.000000, 79.857, 61.9906
5080.000000, 79.983, 57.8364
5150.000000, 80.078, 53.9872
5220.000000, 80.150, 49.9405
5300.000000, 80.190, 45.1195
5380.000000, 80.177, 40.1830
5450.000000, 80.119, 35.8224
5520.000000, 80.015, 31.4981
5600.000000, 79.844, 26.6922
5700.000000, 79.563, 21.0006
5800.000000, 79.222, 15.7928
5900.000000, 78.840, 11.1503
6000.000000, 78.438, 7.0898
6080.000000, 78.115, 4.2368
6150.000000, 77.842, 2.0540
6220.000000, 77.582, 0.1630
6300.000000, 77.310, -1.6586
6400.000000, 77.027, -3.5201
6500.000000, 76.817, -5.0336
6600.000000, 76.684, -6.2668
6700.000000, 76.642, -7.3315
6800.000000, 76.703, -8.3505
6900.000000, 76.865, -9.5028
7000.000000, 77.129, -10.9338
7100.000000, 77.497, -12.7619
7200.000000, 77.967, -15.2029
7300.000000, 78.523, -18.5424
7400.000000, 79.134, -23.0670
7500.000000, 79.747, -29.0295
7620.000000, 80.375, -38.2047
7750.000000, 80.761, -50.3366
7880.000000, 80.678, -63.7643
8000.000000, 80.131, -75.8341
8120.000000, 79.224, -86.3402
8250.000000, 78.012, -95.3259
8380.000000, 76.725, -101.8926
8500.000000, 75.564, -106.1639
8620.000000, 74.474, -109.0569
8750.000000, 73.401, -110.9473
8850.000000, 72.668, -111.6337
9000.000000, 71.765, -111.7819
9120.000000, 71.243, -111.7588
9250.000000, 70.824, -112.4933
9380.000000, 70.400, -114.1204
9500.000000, 69.929, -115.5763
9620.000000, 69.428, -116.3688
9750.000000, 68.944, -116.4562
9880.000000, 68.562, -116.2352
10000.000000, 68.272, -116.2168
10150.000000, 67.916, -116.4603
10300.000000, 67.547, -116.1450
10440.000000, 67.281, -115.1685
10600.000000, 67.110, -114.0399
10750.000000, 67.028, -113.1541
10900.000000, 67.008, -112.2777
11060.000000, 67.060, -111.2644
11200.000000, 67.171, -110.4259
11380.000000, 67.389, -109.6598
11500.000000, 67.568, -109.3522
11720.000000, 67.953, -108.9631
11800.000000, 68.119, -108.8287
12060.000000, 68.772, -108.6937
12200.000000, 69.188, -108.9102
12410.000000, 69.895, -109.8266
12500.000000, 70.224, -110.4504
12650.000000, 70.801, -111.7740
12800.000000, 71.409, -113.4913
13150.000000, 72.937, -119.4050
13200.000000, 73.164, -120.5129
13400.000000, 74.078, -125.6246
13600.000000, 74.969, -131.8999
13800.000000, 75.781, -139.4230
14000.000000, 76.453, -147.9938
14300.000000, 77.135, -161.7272
14500.000000, 77.426, -170.7086
14750.000000, 77.723, 178.4539
15000.000000, 78.027, 167.6567
15250.000000, 78.371, 156.2867
15500.000000, 78.743, 143.6769
15750.000000, 79.069, 128.8897
16000.000000, 79.118, 111.2418
16250.000000, 78.562, 91.6740
16500.000000, 77.239, 72.8844
16750.000000, 75.305, 57.6099
17000.000000, 73.089, 46.9042
17250.000000, 70.880, 40.1849
17500.000000, 68.813, 36.5146
17750.000000, 66.932, 35.0523
18000.000000, 65.244, 35.3533
18250.000000, 63.737, 37.5566
18500.000000, 62.556, 44.2062
18750.000000, 62.530, 54.2748
19000.000000, 63.278, 52.7699
19250.000000, 63.279, 43.3823
19500.000000, 62.543, 35.5256
19750.000000, 61.659, 30.0325
20000.000000, 61.115, 22.4867
