* Measurement data measured by REW V5.31.3
* Source: Input device not selected, no input selected, L, volume: no control
* Format: 256k Log Swept Sine, 1 sweep at -12.0 dBFS with no timing reference
* Dated: Aug 25, 2024 12:58:50 AM
* REW Settings:
*  C-weighting compensation: Off
*  Target level: 75.0 dB
* Note: ; 
* Measurement: Studio 4 (E)
* Smoothing: 1/24 octave
* Frequency Step: 1/48 octave
* Start Frequency: 20.300 Hz
*
* Freq(Hz), SPL(dB), Phase(degrees)
20.299999, 80.549, 27.6174
20.600000, 80.576, 26.9580
20.900000, 80.604, 26.2439
21.200001, 80.630, 25.5215
21.400000, 80.647, 25.0361
21.799999, 80.679, 24.0601
22.000000, 80.694, 23.5740
22.400000, 80.722, 22.6188
22.700001, 80.742, 21.9249
23.000000, 80.760, 21.2527
23.299999, 80.777, 20.5998
23.600000, 80.792, 19.9616
24.000000, 80.809, 19.1250
24.299999, 80.820, 18.5040
24.700001, 80.833, 17.6819
25.000000, 80.842, 17.0695
25.400000, 80.853, 16.2593
25.799999, 80.864, 15.4581
26.200001, 80.875, 14.6700
26.500000, 80.882, 14.0913
26.900000, 80.890, 13.3398
27.200001, 80.895, 12.7920
27.600000, 80.900, 12.0802
28.000000, 80.904, 11.3836
28.500000, 80.906, 10.5268
29.000000, 80.905, 9.6843
29.500000, 80.903, 8.8597
30.000000, 80.899, 8.0521
30.400000, 80.895, 7.4137
30.700001, 80.893, 6.9369
31.100000, 80.888, 6.3042
31.500000, 80.882, 5.6785
32.000000, 80.871, 4.9159
32.500000, 80.860, 4.1817
33.000000, 80.849, 3.4715
33.500000, 80.838, 2.7716
34.000000, 80.828, 2.0720
34.500000, 80.814, 1.3765
35.000000, 80.798, 0.7001
35.500000, 80.780, 0.0523
36.000000, 80.762, -0.5727
36.500000, 80.745, -1.1908
37.000000, 80.727, -1.8117
37.500000, 80.707, -2.4313
38.200001, 80.678, -3.2785
38.700001, 80.659, -3.8637
39.500000, 80.626, -4.7670
40.000000, 80.603, -5.3094
40.599998, 80.572, -5.9396
41.200001, 80.540, -6.5602
41.799999, 80.510, -7.1831
42.500000, 80.475, -7.9084
43.099998, 80.446, -8.5118
43.700001, 80.416, -9.0895
44.400002, 80.379, -9.7467
45.000000, 80.346, -10.3179
45.500000, 80.315, -10.7990
46.200001, 80.271, -11.4487
46.799999, 80.236, -11.9628
47.500000, 80.197, -12.5304
48.200001, 80.157, -13.0938
48.700001, 80.124, -13.4950
49.400002, 80.077, -14.0527
50.000000, 80.039, -14.5365
50.799999, 79.992, -15.1926
51.500000, 79.950, -15.7494
52.200001, 79.905, -16.2645
53.000000, 79.849, -16.7930
53.799999, 79.793, -17.2813
54.500000, 79.749, -17.7285
55.200001, 79.705, -18.2134
56.000000, 79.652, -18.7592
57.000000, 79.588, -19.3719
58.000000, 79.522, -19.9524
59.000000, 79.453, -20.5243
60.000000, 79.383, -21.1008
60.799999, 79.329, -21.5381
61.500000, 79.286, -21.8949
62.200001, 79.244, -22.2511
63.000000, 79.193, -22.6592
64.000000, 79.126, -23.1523
65.000000, 79.058, -23.6473
66.000000, 78.986, -24.1085
67.000000, 78.920, -24.5285
68.000000, 78.858, -24.9414
69.000000, 78.796, -25.3526
70.000000, 78.727, -25.7766
71.000000, 78.652, -26.1752
72.000000, 78.580, -26.5319
73.000000, 78.512, -26.8768
74.000000, 78.446, -27.2212
75.000000, 78.381, -27.5678
76.199997, 78.304, -27.9716
77.500000, 78.223, -28.3905
78.800003, 78.141, -28.7781
80.000000, 78.065, -29.0646
81.199997, 77.992, -29.3551
82.500000, 77.909, -29.7190
83.800003, 77.828, -30.0547
85.000000, 77.755, -30.3226
86.199997, 77.679, -30.5460
87.500000, 77.603, -30.8005
88.500000, 77.547, -31.0153
90.000000, 77.460, -31.3124
91.199997, 77.388, -31.5295
92.500000, 77.312, -31.7485
93.800003, 77.239, -31.9453
95.000000, 77.172, -32.1213
96.199997, 77.110, -32.2973
97.500000, 77.044, -32.4759
98.800003, 76.974, -32.6384
100.000000, 76.912, -32.8017
101.500000, 76.837, -32.9773
103.000000, 76.759, -33.1008
104.400002, 76.685, -33.2400
106.000000, 76.608, -33.3976
107.500000, 76.531, -33.4769
109.000000, 76.455, -33.5674
110.599998, 76.379, -33.6929
112.000000, 76.316, -33.7674
113.800003, 76.236, -33.8764
115.000000, 76.184, -33.9444
117.199997, 76.089, -34.0474
118.000000, 76.055, -34.0918
120.599998, 75.956, -34.1607
122.000000, 75.903, -34.1694
124.099998, 75.825, -34.1954
125.000000, 75.790, -34.1936
126.500000, 75.729, -34.1940
128.000000, 75.667, -34.2085
131.500000, 75.541, -34.2825
132.000000, 75.524, -34.2931
134.000000, 75.461, -34.2933
136.000000, 75.398, -34.2600
138.000000, 75.339, -34.2096
140.000000, 75.274, -34.1605
143.000000, 75.165, -34.1205
145.000000, 75.110, -34.0985
147.500000, 75.042, -34.0626
150.000000, 74.976, -33.9862
152.500000, 74.920, -33.9392
155.000000, 74.853, -33.8550
157.500000, 74.789, -33.7348
160.000000, 74.738, -33.6667
162.500000, 74.687, -33.5817
165.000000, 74.637, -33.4955
167.500000, 74.587, -33.4427
170.000000, 74.539, -33.3516
172.500000, 74.500, -33.2657
175.000000, 74.465, -33.1493
177.500000, 74.428, -33.0214
180.000000, 74.383, -32.9035
182.500000, 74.339, -32.7992
185.000000, 74.299, -32.7515
187.500000, 74.264, -32.6960
190.000000, 74.234, -32.5371
192.500000, 74.203, -32.3912
195.000000, 74.171, -32.3395
197.500000, 74.137, -32.3047
200.000000, 74.105, -32.2319
203.000000, 74.072, -32.1650
206.000000, 74.048, -32.0419
209.000000, 74.026, -31.8953
212.000000, 74.000, -31.7442
214.000000, 73.986, -31.6401
218.000000, 73.963, -31.4293
220.000000, 73.950, -31.3218
224.000000, 73.928, -31.0909
227.000000, 73.928, -30.9385
230.000000, 73.937, -30.8487
233.000000, 73.943, -30.8689
236.000000, 73.945, -30.9308
240.000000, 73.951, -31.0046
243.000000, 73.952, -31.0797
247.000000, 73.935, -31.2084
250.000000, 73.919, -31.2905
254.000000, 73.901, -31.3710
258.000000, 73.881, -31.4072
262.000000, 73.856, -31.4325
265.000000, 73.840, -31.4243
269.000000, 73.822, -31.4258
272.000000, 73.812, -31.4718
276.000000, 73.800, -31.5135
280.000000, 73.787, -31.5253
285.000000, 73.768, -31.5242
290.000000, 73.757, -31.5568
295.000000, 73.746, -31.5916
300.000000, 73.738, -31.6227
304.000000, 73.733, -31.6667
307.000000, 73.729, -31.6975
311.000000, 73.727, -31.7576
315.000000, 73.724, -31.8266
320.000000, 73.714, -31.9219
325.000000, 73.700, -31.9588
330.000000, 73.691, -32.0214
335.000000, 73.684, -32.1186
340.000000, 73.679, -32.2460
345.000000, 73.673, -32.3321
350.000000, 73.671, -32.4105
355.000000, 73.668, -32.4896
360.000000, 73.663, -32.5498
365.000000, 73.656, -32.6233
370.000000, 73.648, -32.7115
375.000000, 73.642, -32.8264
382.000000, 73.648, -33.0358
387.000000, 73.654, -33.1900
395.000000, 73.652, -33.4276
400.000000, 73.649, -33.5844
406.000000, 73.646, -33.7926
412.000000, 73.641, -33.9576
418.000000, 73.629, -34.1014
425.000000, 73.619, -34.2875
431.000000, 73.612, -34.4773
437.000000, 73.606, -34.6726
444.000000, 73.597, -34.8137
450.000000, 73.591, -34.9149
455.000000, 73.588, -35.0351
462.000000, 73.584, -35.2286
468.000000, 73.580, -35.3958
475.000000, 73.573, -35.6032
482.000000, 73.562, -35.7869
487.000000, 73.554, -35.8924
494.000000, 73.546, -36.0294
500.000000, 73.539, -36.1939
508.000000, 73.533, -36.4037
515.000000, 73.527, -36.5521
522.000000, 73.519, -36.6875
530.000000, 73.511, -36.8707
538.000000, 73.503, -37.0773
545.000000, 73.496, -37.2542
552.000000, 73.490, -37.4175
560.000000, 73.481, -37.5680
570.000000, 73.469, -37.7914
580.000000, 73.460, -38.0097
590.000000, 73.446, -38.1623
600.000000, 73.427, -38.3493
608.000000, 73.418, -38.4951
615.000000, 73.415, -38.6368
622.000000, 73.412, -38.7743
630.000000, 73.408, -38.8980
640.000000, 73.399, -39.0156
650.000000, 73.388, -39.1325
660.000000, 73.379, -39.2666
670.000000, 73.373, -39.3974
680.000000, 73.362, -39.4973
690.000000, 73.353, -39.5723
700.000000, 73.349, -39.6304
710.000000, 73.343, -39.6181
720.000000, 73.338, -39.6043
730.000000, 73.340, -39.5523
740.000000, 73.349, -39.4808
750.000000, 73.363, -39.4015
762.000000, 73.399, -39.3029
775.000000, 73.454, -39.2866
788.000000, 73.509, -39.3785
800.000000, 73.551, -39.5188
812.000000, 73.581, -39.6814
825.000000, 73.611, -39.8223
838.000000, 73.643, -39.9379
850.000000, 73.676, -40.0034
862.000000, 73.709, -40.0503
875.000000, 73.749, -40.1093
885.000000, 73.784, -40.1674
900.000000, 73.844, -40.2218
912.000000, 73.893, -40.2265
925.000000, 73.950, -40.2428
938.000000, 74.014, -40.2997
950.000000, 74.077, -40.3974
962.000000, 74.143, -40.4797
975.000000, 74.220, -40.5659
988.000000, 74.301, -40.6502
1000.000000, 74.379, -40.7485
1015.000000, 74.473, -40.9247
1030.000000, 74.570, -41.1123
1044.000000, 74.667, -41.3215
1060.000000, 74.786, -41.5964
1075.000000, 74.897, -41.9190
1090.000000, 75.006, -42.2972
1106.000000, 75.125, -42.7318
1120.000000, 75.230, -43.1539
1138.000000, 75.364, -43.7615
1150.000000, 75.453, -44.1786
1172.000000, 75.605, -44.9718
1180.000000, 75.659, -45.2687
1206.000000, 75.828, -46.3401
1220.000000, 75.915, -46.9474
1241.000000, 76.041, -47.8620
1250.000000, 76.092, -48.2553
1265.000000, 76.175, -48.9236
1280.000000, 76.254, -49.6180
1315.000000, 76.428, -51.2416
1320.000000, 76.452, -51.4721
1340.000000, 76.546, -52.3854
1360.000000, 76.637, -53.2941
1380.000000, 76.719, -54.1922
1400.000000, 76.795, -55.0991
1430.000000, 76.905, -56.4306
1450.000000, 76.975, -57.3018
1475.000000, 77.062, -58.3797
1500.000000, 77.143, -59.4073
1525.000000, 77.228, -60.3932
1550.000000, 77.311, -61.3869
1575.000000, 77.391, -62.3652
1600.000000, 77.473, -63.2899
1625.000000, 77.556, -64.2022
1650.000000, 77.640, -65.1236
1675.000000, 77.728, -66.0270
1700.000000, 77.814, -66.9265
1725.000000, 77.899, -67.7928
1750.000000, 77.989, -68.6541
1775.000000, 78.083, -69.5176
1800.000000, 78.180, -70.3805
1825.000000, 78.277, -71.2309
1850.000000, 78.377, -72.0802
1875.000000, 78.479, -72.9336
1900.000000, 78.584, -73.7979
1925.000000, 78.692, -74.6614
1950.000000, 78.802, -75.5252
1975.000000, 78.915, -76.3816
2000.000000, 79.030, -77.2405
2030.000000, 79.174, -78.3199
2060.000000, 79.321, -79.4098
2090.000000, 79.469, -80.5158
2120.000000, 79.622, -81.6352
2140.000000, 79.726, -82.3859
2180.000000, 79.942, -83.9198
2200.000000, 80.054, -84.7167
2240.000000, 80.281, -86.3771
2270.000000, 80.453, -87.6914
2300.000000, 80.626, -89.0623
2330.000000, 80.804, -90.4669
2360.000000, 80.984, -91.9209
2400.000000, 81.223, -93.9452
2430.000000, 81.400, -95.5328
2470.000000, 81.634, -97.7388
2500.000000, 81.809, -99.4592
2540.000000, 82.038, -101.8533
2580.000000, 82.262, -104.3665
2620.000000, 82.479, -106.9881
2650.000000, 82.635, -109.0350
2690.000000, 82.829, -111.8734
2720.000000, 82.963, -114.0739
2760.000000, 83.128, -117.0961
2800.000000, 83.274, -120.2138
2850.000000, 83.423, -124.2028
2900.000000, 83.532, -128.2790
2950.000000, 83.598, -132.4251
3000.000000, 83.621, -136.6005
3040.000000, 83.608, -139.9119
3070.000000, 83.580, -142.3636
3110.000000, 83.518, -145.5821
3150.000000, 83.431, -148.7198
3200.000000, 83.286, -152.4663
3250.000000, 83.111, -155.9883
3300.000000, 82.912, -159.2564
3350.000000, 82.698, -162.2635
3400.000000, 82.479, -165.0104
3450.000000, 82.262, -167.5188
3500.000000, 82.052, -169.8400
3550.000000, 81.853, -172.0130
3600.000000, 81.662, -174.0647
3650.000000, 81.474, -176.0043
3700.000000, 81.291, -177.8281
3750.000000, 81.110, -179.5369
3820.000000, 80.867, -181.7371
3870.000000, 80.703, -183.1732
3950.000000, 80.463, -185.2712
4000.000000, 80.330, -186.4821
4060.000000, 80.183, -187.8417
4120.000000, 80.053, -189.1096
4180.000000, 79.939, -190.2961
4250.000000, 79.828, -191.6197
4310.000000, 79.755, -192.7095
4370.000000, 79.698, -193.7750
4440.000000, 79.661, -195.0229
4500.000000, 79.651, -196.1192
4550.000000, 79.655, -197.0733
4620.000000, 79.678, -198.4719
4680.000000, 79.711, -199.7550
4750.000000, 79.764, -201.3851
4820.000000, 79.830, -203.1891
4870.000000, 79.880, -204.5858
4940.000000, 79.946, -206.7188
5000.000000, 79.997, -208.7000
5080.000000, 80.047, -211.5477
5150.000000, 80.068, -214.2263
5220.000000, 80.057, -217.0449
5300.000000, 79.999, -220.4004
5380.000000, 79.891, -223.8459
5450.000000, 79.746, -226.8496
5520.000000, 79.553, -229.7659
5600.000000, 79.281, -232.9267
5700.000000, 78.872, -236.5071
5800.000000, 78.400, -239.5238
5900.000000, 77.894, -241.9463
6000.000000, 77.372, -243.7261
6080.000000, 76.955, -244.7181
6150.000000, 76.606, -245.2735
6220.000000, 76.273, -245.5555
6300.000000, 75.913, -245.5934
6400.000000, 75.506, -245.2583
6500.000000, 75.156, -244.6111
6600.000000, 74.872, -243.7059
6700.000000, 74.650, -242.5768
6800.000000, 74.488, -241.3731
6900.000000, 74.386, -240.1202
7000.000000, 74.343, -238.8621
7100.000000, 74.350, -237.6869
7200.000000, 74.405, -236.6073
7300.000000, 74.509, -235.6965
7400.000000, 74.654, -234.9992
7500.000000, 74.827, -234.4937
7620.000000, 75.073, -234.1475
7750.000000, 75.391, -234.1742
7880.000000, 75.743, -234.7644
8000.000000, 76.057, -235.8334
8120.000000, 76.351, -237.2540
8250.000000, 76.654, -239.1206
8380.000000, 76.933, -241.4100
8500.000000, 77.156, -243.8493
8620.000000, 77.335, -246.5516
8750.000000, 77.466, -249.7190
8850.000000, 77.515, -252.2464
9000.000000, 77.490, -255.9928
9120.000000, 77.396, -258.6950
9250.000000, 77.266, -261.1070
9380.000000, 77.176, -263.1359
9500.000000, 77.139, -265.1666
9620.000000, 77.075, -267.5849
9750.000000, 76.914, -270.2708
9880.000000, 76.677, -272.5249
10000.000000, 76.442, -274.0872
10150.000000, 76.173, -275.5002
10300.000000, 75.950, -276.5311
10440.000000, 75.803, -277.3257
10600.000000, 75.697, -278.4768
10750.000000, 75.607, -279.9787
10900.000000, 75.456, -281.9632
11060.000000, 75.143, -283.9878
11200.000000, 74.770, -284.7286
11380.000000, 74.374, -283.9493
11500.000000, 74.259, -282.9903
11720.000000, 74.316, -282.0463
11800.000000, 74.375, -282.1595
12060.000000, 74.533, -284.0142
12200.000000, 74.543, -285.6969
12410.000000, 74.405, -288.6294
12500.000000, 74.286, -289.8615
12650.000000, 74.022, -291.6617
12800.000000, 73.697, -292.9846
13150.000000, 72.872, -294.0844
13200.000000, 72.762, -294.0497
13400.000000, 72.367, -293.5597
13600.000000, 72.056, -292.7330
13800.000000, 71.831, -291.8562
14000.000000, 71.684, -291.0601
14300.000000, 71.590, -290.4885
14500.000000, 71.592, -290.8784
14750.000000, 71.590, -292.6365
15000.000000, 71.411, -295.7700
15250.000000, 70.895, -299.0255
15500.000000, 70.090, -300.5604
15750.000000, 69.254, -299.5041
16000.000000, 68.630, -296.5197
16250.000000, 68.313, -292.7366
16500.000000, 68.271, -289.2453
16750.000000, 68.418, -286.6401
17000.000000, 68.672, -285.2307
17250.000000, 68.942, -284.9051
17500.000000, 69.150, -285.3548
17750.000000, 69.264, -286.1697
18000.000000, 69.271, -286.6768
18250.000000, 69.269, -285.8036
18500.000000, 69.705, -282.2691
18750.000000, 71.269, -280.2604
19000.000000, 72.985, -289.0971
19250.000000, 73.511, -304.9098
19500.000000, 72.925, -320.5977
19750.000000, 71.769, -333.9296
20000.000000, 70.818, -343.5675
