* Measurement data measured by REW V5.31.3
* Source: Input device not selected, no input selected, L, volume: no control
* Format: 256k Log Swept Sine, 1 sweep at -12.0 dBFS with no timing reference
* Dated: Jan 2, 2025 10:48:24 PM
* REW Settings:
*  C-weighting compensation: Off
*  Target level: 75.0 dB
* Note: 
* Measurement: Studio 4 (BGVP Foam M) L
* Smoothing: 1/24 octave
* Frequency Step: 1/48 octave
* Start Frequency: 20.300 Hz
*
* Freq(Hz), SPL(dB), Phase(degrees)
20.299999, 76.377, 36.7316
20.600000, 76.398, 36.1306
20.900000, 76.421, 35.4447
21.200001, 76.444, 34.7442
21.400000, 76.460, 34.2743
21.799999, 76.498, 33.3357
22.000000, 76.518, 32.8712
22.400000, 76.557, 31.9617
22.700001, 76.582, 31.3029
23.000000, 76.602, 30.6678
23.299999, 76.617, 30.0575
23.600000, 76.628, 29.4697
24.000000, 76.642, 28.7119
24.299999, 76.655, 28.1532
24.700001, 76.677, 27.4071
25.000000, 76.697, 26.8418
25.400000, 76.724, 26.0853
25.799999, 76.747, 25.3428
26.200001, 76.763, 24.6350
26.500000, 76.771, 24.1323
26.900000, 76.779, 23.4901
27.200001, 76.785, 23.0153
27.600000, 76.792, 22.3718
28.000000, 76.797, 21.7097
28.500000, 76.797, 20.8829
29.000000, 76.793, 20.1067
29.500000, 76.792, 19.3924
30.000000, 76.800, 18.6915
30.400000, 76.809, 18.1075
30.700001, 76.814, 17.6580
31.100000, 76.815, 17.0674
31.500000, 76.809, 16.5188
32.000000, 76.801, 15.9014
32.500000, 76.797, 15.3048
33.000000, 76.795, 14.6575
33.500000, 76.788, 13.9607
34.000000, 76.773, 13.2886
34.500000, 76.757, 12.7032
35.000000, 76.748, 12.1872
35.500000, 76.742, 11.6709
36.000000, 76.733, 11.1130
36.500000, 76.715, 10.5339
37.000000, 76.692, 9.9807
37.500000, 76.669, 9.4776
38.200001, 76.642, 8.8312
38.700001, 76.620, 8.3732
39.500000, 76.579, 7.5846
40.000000, 76.555, 7.0475
40.599998, 76.533, 6.3927
41.200001, 76.514, 5.7947
41.799999, 76.495, 5.2993
42.500000, 76.465, 4.8082
43.099998, 76.435, 4.3715
43.700001, 76.401, 3.8799
44.400002, 76.362, 3.3030
45.000000, 76.338, 2.8619
45.500000, 76.324, 2.5075
46.200001, 76.303, 1.9553
46.799999, 76.269, 1.4517
47.500000, 76.212, 0.9562
48.200001, 76.157, 0.5930
48.700001, 76.125, 0.3392
49.400002, 76.083, -0.0992
50.000000, 76.043, -0.5165
50.799999, 75.991, -0.9948
51.500000, 75.954, -1.3235
52.200001, 75.921, -1.6568
53.000000, 75.876, -2.0918
53.799999, 75.833, -2.5451
54.500000, 75.795, -2.9391
55.200001, 75.747, -3.3051
56.000000, 75.684, -3.6523
57.000000, 75.620, -4.0464
58.000000, 75.554, -4.3751
59.000000, 75.482, -4.6591
60.000000, 75.414, -5.1668
60.799999, 75.368, -5.5812
61.500000, 75.333, -5.8389
62.200001, 75.287, -6.0331
63.000000, 75.214, -6.2136
64.000000, 75.146, -6.5063
65.000000, 75.105, -6.9556
66.000000, 75.052, -7.2526
67.000000, 75.000, -7.4259
68.000000, 74.938, -7.7118
69.000000, 74.857, -8.0015
70.000000, 74.795, -8.2570
71.000000, 74.759, -8.5721
72.000000, 74.697, -8.8307
73.000000, 74.599, -8.9347
74.000000, 74.502, -9.0857
75.000000, 74.426, -9.2760
76.199997, 74.360, -9.3701
77.500000, 74.300, -9.4710
78.800003, 74.237, -9.7397
80.000000, 74.155, -9.8538
81.199997, 74.073, -9.8373
82.500000, 73.990, -9.9749
83.800003, 73.913, -10.1117
85.000000, 73.852, -10.1732
86.199997, 73.788, -10.2103
87.500000, 73.700, -10.2623
88.500000, 73.624, -10.3121
90.000000, 73.528, -10.2945
91.199997, 73.462, -10.2771
92.500000, 73.393, -10.3706
93.800003, 73.327, -10.3986
95.000000, 73.264, -10.3389
96.199997, 73.195, -10.3426
97.500000, 73.124, -10.3264
98.800003, 73.064, -10.2910
100.000000, 73.004, -10.2745
101.500000, 72.926, -10.1438
103.000000, 72.854, -9.9679
104.400002, 72.786, -9.8569
106.000000, 72.699, -9.6893
107.500000, 72.622, -9.5360
109.000000, 72.558, -9.4427
110.599998, 72.482, -9.3470
112.000000, 72.412, -9.2102
113.800003, 72.334, -8.9529
115.000000, 72.285, -8.7357
117.199997, 72.196, -8.4250
118.000000, 72.166, -8.3954
120.599998, 72.071, -8.2885
122.000000, 72.017, -8.0174
124.099998, 71.935, -7.5854
125.000000, 71.900, -7.4393
126.500000, 71.846, -7.2108
128.000000, 71.791, -6.9816
131.500000, 71.651, -6.4818
132.000000, 71.635, -6.4054
134.000000, 71.574, -6.0816
136.000000, 71.506, -5.7079
138.000000, 71.438, -5.3065
140.000000, 71.376, -4.9835
143.000000, 71.279, -4.4950
145.000000, 71.210, -4.1456
147.500000, 71.149, -3.7244
150.000000, 71.093, -3.2850
152.500000, 71.035, -2.8143
155.000000, 70.967, -2.3447
157.500000, 70.908, -1.8561
160.000000, 70.863, -1.4266
162.500000, 70.821, -0.9461
165.000000, 70.773, -0.4768
167.500000, 70.727, 0.0519
170.000000, 70.685, 0.6211
172.500000, 70.637, 1.0837
175.000000, 70.577, 1.5401
177.500000, 70.530, 1.9778
180.000000, 70.492, 2.4739
182.500000, 70.452, 2.9803
185.000000, 70.428, 3.4596
187.500000, 70.410, 3.8675
190.000000, 70.384, 4.2504
192.500000, 70.344, 4.6847
195.000000, 70.304, 5.1217
197.500000, 70.277, 5.5470
200.000000, 70.252, 5.9444
203.000000, 70.219, 6.4861
206.000000, 70.202, 7.1020
209.000000, 70.188, 7.6278
212.000000, 70.159, 8.0751
214.000000, 70.134, 8.4161
218.000000, 70.093, 9.1075
220.000000, 70.080, 9.4241
224.000000, 70.054, 10.0870
227.000000, 70.040, 10.6148
230.000000, 70.022, 11.0536
233.000000, 69.998, 11.5217
236.000000, 69.979, 12.0103
240.000000, 69.970, 12.7141
243.000000, 69.968, 13.2148
247.000000, 69.962, 13.8624
250.000000, 69.944, 14.3321
254.000000, 69.923, 14.9313
258.000000, 69.908, 15.4982
262.000000, 69.886, 16.0776
265.000000, 69.874, 16.5058
269.000000, 69.864, 17.0660
272.000000, 69.861, 17.4808
276.000000, 69.859, 18.0424
280.000000, 69.854, 18.6022
285.000000, 69.858, 19.3686
290.000000, 69.851, 20.0993
295.000000, 69.845, 20.7094
300.000000, 69.838, 21.3630
304.000000, 69.828, 21.8365
307.000000, 69.823, 22.1504
311.000000, 69.832, 22.5984
315.000000, 69.841, 23.1252
320.000000, 69.830, 23.7189
325.000000, 69.817, 24.2803
330.000000, 69.810, 24.9290
335.000000, 69.808, 25.5229
340.000000, 69.802, 26.0159
345.000000, 69.787, 26.5372
350.000000, 69.776, 27.0608
355.000000, 69.771, 27.5712
360.000000, 69.772, 28.1329
365.000000, 69.775, 28.7246
370.000000, 69.779, 29.2674
375.000000, 69.773, 29.7863
382.000000, 69.757, 30.5886
387.000000, 69.758, 31.1009
395.000000, 69.767, 31.8626
400.000000, 69.767, 32.3464
406.000000, 69.758, 32.9478
412.000000, 69.751, 33.6059
418.000000, 69.760, 34.2058
425.000000, 69.754, 34.8261
431.000000, 69.735, 35.4219
437.000000, 69.723, 36.0241
444.000000, 69.715, 36.8251
450.000000, 69.716, 37.4403
455.000000, 69.723, 37.8991
462.000000, 69.727, 38.5496
468.000000, 69.714, 39.0684
475.000000, 69.708, 39.7660
482.000000, 69.723, 40.5114
487.000000, 69.733, 40.9654
494.000000, 69.722, 41.5314
500.000000, 69.707, 42.1099
508.000000, 69.703, 42.8534
515.000000, 69.704, 43.3657
522.000000, 69.703, 43.9819
530.000000, 69.695, 44.7706
538.000000, 69.687, 45.5304
545.000000, 69.683, 46.2274
552.000000, 69.683, 46.9447
560.000000, 69.686, 47.7229
570.000000, 69.677, 48.6941
580.000000, 69.659, 49.6634
590.000000, 69.658, 50.5503
600.000000, 69.652, 51.4633
608.000000, 69.635, 52.1960
615.000000, 69.624, 52.8250
622.000000, 69.622, 53.4629
630.000000, 69.621, 54.2368
640.000000, 69.618, 55.1581
650.000000, 69.622, 56.0839
660.000000, 69.618, 57.1274
670.000000, 69.620, 58.0281
680.000000, 69.621, 58.9561
690.000000, 69.622, 59.9242
700.000000, 69.629, 60.8291
710.000000, 69.644, 61.8102
720.000000, 69.651, 62.7451
730.000000, 69.656, 63.7298
740.000000, 69.662, 64.7701
750.000000, 69.674, 65.7509
762.000000, 69.686, 66.9732
775.000000, 69.702, 68.2140
788.000000, 69.719, 69.4378
800.000000, 69.734, 70.6118
812.000000, 69.757, 71.8095
825.000000, 69.787, 73.0638
838.000000, 69.825, 74.4016
850.000000, 69.867, 75.6166
862.000000, 69.904, 76.8131
875.000000, 69.950, 78.0366
885.000000, 69.994, 78.9676
900.000000, 70.060, 80.4172
912.000000, 70.113, 81.5952
925.000000, 70.176, 82.8160
938.000000, 70.249, 83.9380
950.000000, 70.313, 84.9667
962.000000, 70.386, 86.0224
975.000000, 70.471, 87.1743
988.000000, 70.560, 88.2703
1000.000000, 70.641, 89.2414
1015.000000, 70.730, 90.4092
1030.000000, 70.831, 91.5233
1044.000000, 70.935, 92.5194
1060.000000, 71.048, 93.6227
1075.000000, 71.147, 94.6136
1090.000000, 71.255, 95.5723
1106.000000, 71.370, 96.5398
1120.000000, 71.473, 97.2990
1138.000000, 71.602, 98.3029
1150.000000, 71.682, 98.9600
1172.000000, 71.824, 100.0266
1180.000000, 71.871, 100.3918
1206.000000, 72.022, 101.5809
1220.000000, 72.105, 102.2263
1241.000000, 72.227, 103.1182
1250.000000, 72.277, 103.5018
1265.000000, 72.356, 104.1329
1280.000000, 72.425, 104.7477
1315.000000, 72.576, 106.1047
1320.000000, 72.596, 106.3012
1340.000000, 72.675, 107.1133
1360.000000, 72.755, 107.9036
1380.000000, 72.834, 108.6582
1400.000000, 72.908, 109.4473
1430.000000, 73.018, 110.6699
1450.000000, 73.087, 111.4642
1475.000000, 73.175, 112.4421
1500.000000, 73.263, 113.4536
1525.000000, 73.352, 114.4870
1550.000000, 73.431, 115.5180
1575.000000, 73.503, 116.5209
1600.000000, 73.584, 117.5337
1625.000000, 73.666, 118.5568
1650.000000, 73.750, 119.5798
1675.000000, 73.835, 120.6083
1700.000000, 73.922, 121.6381
1725.000000, 74.015, 122.6396
1750.000000, 74.110, 123.6442
1775.000000, 74.204, 124.6956
1800.000000, 74.298, 125.7551
1825.000000, 74.404, 126.7612
1850.000000, 74.515, 127.7460
1875.000000, 74.622, 128.7063
1900.000000, 74.730, 129.6882
1925.000000, 74.845, 130.6159
1950.000000, 74.964, 131.4550
1975.000000, 75.082, 132.2851
2000.000000, 75.195, 133.1537
2030.000000, 75.335, 134.2033
2060.000000, 75.485, 135.2816
2090.000000, 75.645, 136.2624
2120.000000, 75.810, 137.1518
2140.000000, 75.918, 137.7354
2180.000000, 76.138, 138.7994
2200.000000, 76.252, 139.2896
2240.000000, 76.483, 140.2380
2270.000000, 76.657, 140.8989
2300.000000, 76.836, 141.4621
2330.000000, 77.015, 141.9498
2360.000000, 77.195, 142.3811
2400.000000, 77.434, 142.9130
2430.000000, 77.613, 143.2303
2470.000000, 77.855, 143.5389
2500.000000, 78.038, 143.6693
2540.000000, 78.273, 143.7371
2580.000000, 78.498, 143.6539
2620.000000, 78.717, 143.4276
2650.000000, 78.874, 143.1671
2690.000000, 79.070, 142.7060
2720.000000, 79.207, 142.2674
2760.000000, 79.375, 141.5791
2800.000000, 79.521, 140.8045
2850.000000, 79.669, 139.6958
2900.000000, 79.781, 138.4472
2950.000000, 79.853, 137.1194
3000.000000, 79.877, 135.7985
3040.000000, 79.868, 134.7631
3070.000000, 79.842, 134.0013
3110.000000, 79.784, 133.0217
3150.000000, 79.705, 132.1356
3200.000000, 79.577, 131.1749
3250.000000, 79.424, 130.3825
3300.000000, 79.252, 129.8052
3350.000000, 79.067, 129.4325
3400.000000, 78.878, 129.2371
3450.000000, 78.689, 129.1957
3500.000000, 78.498, 129.3068
3550.000000, 78.309, 129.5851
3600.000000, 78.120, 129.9838
3650.000000, 77.937, 130.5079
3700.000000, 77.764, 131.1399
3750.000000, 77.601, 131.8760
3820.000000, 77.387, 133.0702
3870.000000, 77.248, 134.0091
3950.000000, 77.050, 135.6581
4000.000000, 76.940, 136.7724
4060.000000, 76.829, 138.1566
4120.000000, 76.739, 139.5642
4180.000000, 76.668, 140.9777
4250.000000, 76.613, 142.6298
4310.000000, 76.587, 144.0368
4370.000000, 76.578, 145.4084
4440.000000, 76.592, 146.9401
4500.000000, 76.624, 148.1736
4550.000000, 76.661, 149.1495
4620.000000, 76.726, 150.4379
4680.000000, 76.797, 151.4197
4750.000000, 76.896, 152.3625
4820.000000, 77.004, 153.0781
4870.000000, 77.084, 153.4553
4940.000000, 77.196, 153.8127
5000.000000, 77.290, 153.9342
5080.000000, 77.389, 153.7832
5150.000000, 77.449, 153.4288
5220.000000, 77.483, 152.9074
5300.000000, 77.480, 152.1023
5380.000000, 77.417, 151.1731
5450.000000, 77.312, 150.3438
5520.000000, 77.166, 149.5678
5600.000000, 76.948, 148.8367
5700.000000, 76.614, 148.2520
5800.000000, 76.227, 148.1180
5900.000000, 75.813, 148.4984
6000.000000, 75.391, 149.4604
6080.000000, 75.065, 150.5984
6150.000000, 74.796, 151.8369
6220.000000, 74.545, 153.2675
6300.000000, 74.292, 155.1141
6400.000000, 74.035, 157.6256
6500.000000, 73.848, 160.2606
6600.000000, 73.733, 162.9759
6700.000000, 73.694, 165.6389
6800.000000, 73.729, 168.1079
6900.000000, 73.822, 170.2865
7000.000000, 73.969, 172.0896
7100.000000, 74.167, 173.3993
7200.000000, 74.393, 174.0631
7300.000000, 74.621, 174.0113
7400.000000, 74.820, 173.2129
7500.000000, 74.954, 171.7439
7620.000000, 74.984, 169.4171
7750.000000, 74.845, 166.5384
7880.000000, 74.535, 163.6439
8000.000000, 74.098, 161.1595
8120.000000, 73.524, 159.2287
8250.000000, 72.813, 158.1089
8380.000000, 72.056, 157.9043
8500.000000, 71.350, 158.4030
8620.000000, 70.665, 159.5820
8750.000000, 69.959, 161.4036
8850.000000, 69.437, 163.1263
9000.000000, 68.700, 166.2079
9120.000000, 68.154, 169.1503
9250.000000, 67.628, 172.8284
9380.000000, 67.203, 176.9437
9500.000000, 66.935, -179.1954
9620.000000, 66.780, -175.7975
9750.000000, 66.637, -172.9847
9880.000000, 66.429, -170.5844
10000.000000, 66.188, -168.0902
10150.000000, 65.892, -164.3571
10300.000000, 65.664, -160.1281
10440.000000, 65.556, -155.9046
10600.000000, 65.567, -151.5936
10750.000000, 65.615, -148.3028
10900.000000, 65.622, -145.2339
11060.000000, 65.615, -141.7216
11200.000000, 65.635, -138.3515
11380.000000, 65.771, -133.7670
11500.000000, 65.949, -130.8690
11720.000000, 66.399, -126.3077
11800.000000, 66.583, -124.8626
12060.000000, 67.249, -120.9624
12200.000000, 67.653, -119.3931
12410.000000, 68.278, -118.0261
12500.000000, 68.543, -117.7604
12650.000000, 68.974, -117.6874
12800.000000, 69.386, -118.0280
13150.000000, 70.252, -120.2509
13200.000000, 70.363, -120.7094
13400.000000, 70.771, -122.8884
13600.000000, 71.138, -125.6205
13800.000000, 71.460, -128.8373
14000.000000, 71.721, -132.4396
14300.000000, 72.027, -138.5747
14500.000000, 72.189, -143.4041
14750.000000, 72.260, -150.7452
15000.000000, 72.037, -159.2052
15250.000000, 71.428, -167.3046
15500.000000, 70.557, -173.5299
15750.000000, 69.683, -177.8095
16000.000000, 68.952, 178.8101
16250.000000, 68.348, 175.2097
16500.000000, 67.739, 171.0669
16750.000000, 67.022, 166.5136
17000.000000, 66.145, 161.9906
17250.000000, 65.076, 157.7178
17500.000000, 63.822, 154.2355
17750.000000, 62.369, 151.6496
18000.000000, 60.689, 150.3534
18250.000000, 58.726, 151.8442
18500.000000, 56.817, 159.5281
18750.000000, 56.191, 169.4676
19000.000000, 56.360, 167.5162
19250.000000, 55.496, 157.1512
19500.000000, 53.413, 147.7075
19750.000000, 50.827, 141.4446
