* Measurement data measured by REW V5.31.3
* Source: Input device not selected, no input selected, L, volume: no control
* Format: 256k Log Swept Sine, 1 sweep at -12.0 dBFS with no timing reference
* Dated: Sep 2, 2024 1:38:32 PM
* REW Settings:
*  C-weighting compensation: Off
*  Target level: 75.0 dB
* Note: ; 
* Measurement: Artti T10 (Stock M) L
* Smoothing: 1/24 octave
* Frequency Step: 1/48 octave
* Start Frequency: 20.300 Hz
*
* Freq(Hz), SPL(dB), Phase(degrees)
20.299999, 84.215, 176.5631
20.600000, 84.146, 176.2605
20.900000, 84.068, 175.9862
21.200001, 84.006, 175.7144
21.400000, 83.983, 175.5021
21.799999, 83.982, 174.9483
22.000000, 84.000, 174.6078
22.400000, 84.048, 173.8728
22.700001, 84.075, 173.3704
23.000000, 84.082, 172.9907
23.299999, 84.068, 172.7651
23.600000, 84.039, 172.6678
24.000000, 83.991, 172.5892
24.299999, 83.960, 172.4571
24.700001, 83.928, 172.0415
25.000000, 83.911, 171.5449
25.400000, 83.891, 170.7522
25.799999, 83.873, 169.9954
26.200001, 83.858, 169.4182
26.500000, 83.846, 169.1144
26.900000, 83.825, 168.8141
27.200001, 83.798, 168.6102
27.600000, 83.739, 168.3254
28.000000, 83.656, 168.0543
28.500000, 83.548, 167.8405
29.000000, 83.479, 167.7898
29.500000, 83.470, 167.7128
30.000000, 83.487, 167.3694
30.400000, 83.480, 166.8808
30.700001, 83.452, 166.4576
31.100000, 83.390, 165.9321
31.500000, 83.323, 165.5303
32.000000, 83.266, 165.1660
32.500000, 83.237, 164.8033
33.000000, 83.199, 164.4144
33.500000, 83.125, 164.1835
34.000000, 83.043, 164.2409
34.500000, 82.999, 164.4027
35.000000, 82.997, 164.2940
35.500000, 82.992, 163.7599
36.000000, 82.948, 163.0176
36.500000, 82.881, 162.4094
37.000000, 82.836, 162.0786
37.500000, 82.834, 161.9180
38.200001, 82.853, 161.7276
38.700001, 82.827, 161.6097
39.500000, 82.710, 161.4468
40.000000, 82.629, 161.2063
40.599998, 82.567, 160.6633
41.200001, 82.551, 159.9909
41.799999, 82.553, 159.4577
42.500000, 82.512, 159.1892
43.099998, 82.422, 159.1488
43.700001, 82.316, 159.0461
44.400002, 82.233, 158.6694
45.000000, 82.204, 158.2524
45.500000, 82.187, 158.0059
46.200001, 82.135, 157.9145
46.799999, 82.059, 157.9364
47.500000, 81.967, 157.8076
48.200001, 81.899, 157.4650
48.700001, 81.859, 157.2388
49.400002, 81.800, 157.1296
50.000000, 81.745, 157.1256
50.799999, 81.669, 156.8224
51.500000, 81.592, 156.2556
52.200001, 81.517, 155.7451
53.000000, 81.442, 155.4285
53.799999, 81.367, 155.3316
54.500000, 81.319, 155.3687
55.200001, 81.304, 155.3593
56.000000, 81.281, 155.1668
57.000000, 81.198, 154.8974
58.000000, 81.112, 154.6113
59.000000, 81.014, 154.1930
60.000000, 80.894, 154.0595
60.799999, 80.831, 154.1855
61.500000, 80.800, 154.2309
62.200001, 80.758, 154.1092
63.000000, 80.682, 153.8345
64.000000, 80.594, 153.4196
65.000000, 80.522, 153.1727
66.000000, 80.439, 153.3671
67.000000, 80.363, 153.5082
68.000000, 80.287, 153.2239
69.000000, 80.200, 152.8918
70.000000, 80.119, 152.7557
71.000000, 80.058, 152.7030
72.000000, 80.002, 152.6606
73.000000, 79.925, 152.6102
74.000000, 79.846, 152.5774
75.000000, 79.796, 152.5708
76.199997, 79.726, 152.5959
77.500000, 79.595, 152.5004
78.800003, 79.458, 152.2136
80.000000, 79.377, 152.2065
81.199997, 79.318, 152.3646
82.500000, 79.232, 152.3982
83.800003, 79.133, 152.3900
85.000000, 79.053, 152.4032
86.199997, 78.974, 152.3620
87.500000, 78.901, 152.3169
88.500000, 78.856, 152.3397
90.000000, 78.769, 152.4067
91.199997, 78.675, 152.5270
92.500000, 78.583, 152.5542
93.800003, 78.496, 152.5143
95.000000, 78.435, 152.5726
96.199997, 78.377, 152.6123
97.500000, 78.291, 152.6110
98.800003, 78.202, 152.7057
100.000000, 78.129, 152.8653
101.500000, 78.032, 152.9848
103.000000, 77.939, 153.0784
104.400002, 77.855, 153.2160
106.000000, 77.772, 153.2734
107.500000, 77.696, 153.3964
109.000000, 77.613, 153.5443
110.599998, 77.528, 153.6654
112.000000, 77.463, 153.8254
113.800003, 77.376, 154.0519
115.000000, 77.310, 154.1773
117.199997, 77.186, 154.3716
118.000000, 77.142, 154.4433
120.599998, 77.035, 154.6746
122.000000, 76.981, 154.8410
124.099998, 76.883, 155.1101
125.000000, 76.841, 155.2343
126.500000, 76.773, 155.4325
128.000000, 76.704, 155.6514
131.500000, 76.556, 156.1297
132.000000, 76.534, 156.1798
134.000000, 76.444, 156.4232
136.000000, 76.351, 156.6481
138.000000, 76.272, 156.8485
140.000000, 76.200, 157.1587
143.000000, 76.077, 157.7574
145.000000, 75.996, 158.0499
147.500000, 75.901, 158.3644
150.000000, 75.792, 158.6943
152.500000, 75.699, 159.0132
155.000000, 75.615, 159.4407
157.500000, 75.528, 159.8408
160.000000, 75.440, 160.2148
162.500000, 75.357, 160.6030
165.000000, 75.281, 161.0149
167.500000, 75.200, 161.3929
170.000000, 75.130, 161.7361
172.500000, 75.060, 162.1208
175.000000, 74.974, 162.5599
177.500000, 74.890, 163.0233
180.000000, 74.819, 163.3723
182.500000, 74.746, 163.7746
185.000000, 74.674, 164.2702
187.500000, 74.601, 164.7049
190.000000, 74.528, 165.0832
192.500000, 74.465, 165.4814
195.000000, 74.400, 165.8952
197.500000, 74.334, 166.2899
200.000000, 74.267, 166.6859
203.000000, 74.190, 167.1616
206.000000, 74.125, 167.6034
209.000000, 74.065, 168.1121
212.000000, 73.992, 168.7156
214.000000, 73.942, 169.0940
218.000000, 73.855, 169.7765
220.000000, 73.818, 170.0830
224.000000, 73.725, 170.6764
227.000000, 73.657, 171.1833
230.000000, 73.601, 171.6801
233.000000, 73.545, 172.2360
236.000000, 73.492, 172.7658
240.000000, 73.418, 173.4350
243.000000, 73.363, 174.0135
247.000000, 73.288, 174.7469
250.000000, 73.227, 175.2284
254.000000, 73.160, 175.9046
258.000000, 73.099, 176.5955
262.000000, 73.038, 177.2216
265.000000, 72.985, 177.6558
269.000000, 72.917, 178.2996
272.000000, 72.877, 178.8621
276.000000, 72.822, 179.5921
280.000000, 72.755, -179.7603
285.000000, 72.681, -179.0299
290.000000, 72.614, -178.3056
295.000000, 72.558, -177.4166
300.000000, 72.493, -176.6118
304.000000, 72.440, -175.9572
307.000000, 72.410, -175.4139
311.000000, 72.374, -174.7158
315.000000, 72.337, -174.0702
320.000000, 72.287, -173.3073
325.000000, 72.237, -172.5009
330.000000, 72.178, -171.7078
335.000000, 72.123, -170.9297
340.000000, 72.080, -170.1830
345.000000, 72.034, -169.4262
350.000000, 71.987, -168.6415
355.000000, 71.943, -167.8057
360.000000, 71.905, -166.9749
365.000000, 71.863, -166.2265
370.000000, 71.821, -165.4297
375.000000, 71.785, -164.6445
382.000000, 71.742, -163.6662
387.000000, 71.702, -162.9448
395.000000, 71.648, -161.7832
400.000000, 71.621, -161.0023
406.000000, 71.586, -160.0602
412.000000, 71.547, -159.1414
418.000000, 71.511, -158.2361
425.000000, 71.482, -157.2061
431.000000, 71.446, -156.3079
437.000000, 71.415, -155.4833
444.000000, 71.394, -154.5480
450.000000, 71.372, -153.7189
455.000000, 71.350, -153.0350
462.000000, 71.315, -152.0505
468.000000, 71.293, -151.1539
475.000000, 71.274, -150.0380
482.000000, 71.252, -149.0840
487.000000, 71.234, -148.4343
494.000000, 71.201, -147.4692
500.000000, 71.177, -146.6215
508.000000, 71.165, -145.5775
515.000000, 71.160, -144.6405
522.000000, 71.157, -143.6885
530.000000, 71.151, -142.6769
538.000000, 71.132, -141.5530
545.000000, 71.116, -140.5459
552.000000, 71.104, -139.6491
560.000000, 71.090, -138.6428
570.000000, 71.076, -137.3134
580.000000, 71.067, -136.0066
590.000000, 71.066, -134.6981
600.000000, 71.065, -133.4260
608.000000, 71.055, -132.3710
615.000000, 71.048, -131.4694
622.000000, 71.053, -130.6217
630.000000, 71.063, -129.6290
640.000000, 71.064, -128.3852
650.000000, 71.061, -127.1727
660.000000, 71.062, -125.9396
670.000000, 71.081, -124.6557
680.000000, 71.101, -123.4136
690.000000, 71.111, -122.1784
700.000000, 71.120, -120.9377
710.000000, 71.137, -119.7157
720.000000, 71.166, -118.5575
730.000000, 71.195, -117.3865
740.000000, 71.226, -116.1718
750.000000, 71.254, -114.9711
762.000000, 71.281, -113.5278
775.000000, 71.322, -111.9910
788.000000, 71.373, -110.4606
800.000000, 71.411, -109.0280
812.000000, 71.456, -107.6614
825.000000, 71.521, -106.2060
838.000000, 71.585, -104.7156
850.000000, 71.634, -103.3816
862.000000, 71.686, -102.0580
875.000000, 71.747, -100.6183
885.000000, 71.795, -99.5429
900.000000, 71.877, -97.9615
912.000000, 71.955, -96.6596
925.000000, 72.034, -95.2447
938.000000, 72.123, -93.8571
950.000000, 72.203, -92.6159
962.000000, 72.284, -91.3827
975.000000, 72.383, -89.9811
988.000000, 72.493, -88.5925
1000.000000, 72.595, -87.3982
1015.000000, 72.719, -86.0658
1030.000000, 72.854, -84.7426
1044.000000, 72.986, -83.5304
1060.000000, 73.141, -82.1849
1075.000000, 73.278, -80.9706
1090.000000, 73.413, -79.8412
1106.000000, 73.569, -78.6720
1120.000000, 73.707, -77.6618
1138.000000, 73.879, -76.4298
1150.000000, 73.991, -75.6430
1172.000000, 74.192, -74.2917
1180.000000, 74.265, -73.8151
1206.000000, 74.506, -72.3038
1220.000000, 74.635, -71.4966
1241.000000, 74.834, -70.4082
1250.000000, 74.915, -69.9516
1265.000000, 75.045, -69.2127
1280.000000, 75.177, -68.4865
1315.000000, 75.490, -66.7964
1320.000000, 75.535, -66.5753
1340.000000, 75.711, -65.7060
1360.000000, 75.888, -64.8585
1380.000000, 76.064, -64.0267
1400.000000, 76.242, -63.2370
1430.000000, 76.533, -62.1459
1450.000000, 76.727, -61.5122
1475.000000, 76.972, -60.7634
1500.000000, 77.223, -60.1525
1525.000000, 77.473, -59.7183
1550.000000, 77.731, -59.4149
1575.000000, 77.993, -59.3670
1600.000000, 78.240, -59.5758
1625.000000, 78.460, -60.0665
1650.000000, 78.633, -60.8430
1675.000000, 78.743, -61.7914
1700.000000, 78.788, -62.6829
1725.000000, 78.775, -63.3188
1750.000000, 78.731, -63.5917
1775.000000, 78.681, -63.5458
1800.000000, 78.641, -63.2967
1825.000000, 78.610, -62.9875
1850.000000, 78.572, -62.6366
1875.000000, 78.522, -62.1571
1900.000000, 78.467, -61.4198
1925.000000, 78.424, -60.3513
1950.000000, 78.422, -58.9710
1975.000000, 78.486, -57.4098
2000.000000, 78.624, -55.8809
2030.000000, 78.865, -54.4632
2060.000000, 79.145, -53.7140
2090.000000, 79.403, -53.6078
2120.000000, 79.609, -53.8639
2140.000000, 79.717, -54.1129
2180.000000, 79.885, -54.6282
2200.000000, 79.952, -54.8890
2240.000000, 80.066, -55.3968
2270.000000, 80.134, -55.7565
2300.000000, 80.188, -56.1145
2330.000000, 80.229, -56.5008
2360.000000, 80.256, -56.8934
2400.000000, 80.269, -57.4082
2430.000000, 80.257, -57.7658
2470.000000, 80.218, -58.1371
2500.000000, 80.176, -58.3377
2540.000000, 80.114, -58.5291
2580.000000, 80.057, -58.6059
2620.000000, 80.005, -58.6697
2650.000000, 79.958, -58.7606
2690.000000, 79.885, -58.9030
2720.000000, 79.822, -59.0014
2760.000000, 79.726, -59.1175
2800.000000, 79.610, -59.2003
2850.000000, 79.433, -59.1992
2900.000000, 79.208, -58.9738
2950.000000, 78.968, -58.3571
3000.000000, 78.747, -57.3508
3040.000000, 78.587, -56.3824
3070.000000, 78.485, -55.5994
3110.000000, 78.373, -54.5162
3150.000000, 78.277, -53.4613
3200.000000, 78.175, -52.2262
3250.000000, 78.074, -51.0511
3300.000000, 77.973, -49.8707
3350.000000, 77.875, -48.6866
3400.000000, 77.775, -47.4743
3450.000000, 77.668, -46.2015
3500.000000, 77.563, -44.7430
3550.000000, 77.482, -43.0884
3600.000000, 77.434, -41.3943
3650.000000, 77.421, -39.7856
3700.000000, 77.440, -38.2598
3750.000000, 77.488, -36.8979
3820.000000, 77.571, -35.4142
3870.000000, 77.621, -34.7765
3950.000000, 77.608, -34.4396
4000.000000, 77.488, -34.3298
4060.000000, 77.243, -33.5167
4120.000000, 76.999, -31.5322
4180.000000, 76.867, -28.8544
4250.000000, 76.846, -25.7415
4310.000000, 76.910, -23.2854
4370.000000, 77.041, -21.1699
4440.000000, 77.240, -19.3078
4500.000000, 77.409, -18.2258
4550.000000, 77.520, -17.6003
4620.000000, 77.611, -16.8356
4680.000000, 77.657, -16.0263
4750.000000, 77.717, -14.8262
4820.000000, 77.815, -13.5219
4870.000000, 77.913, -12.7213
4940.000000, 78.068, -11.9250
5000.000000, 78.200, -11.4864
5080.000000, 78.364, -11.1870
5150.000000, 78.492, -11.2435
5220.000000, 78.592, -11.6257
5300.000000, 78.642, -12.3210
5380.000000, 78.614, -13.0994
5450.000000, 78.540, -13.7552
5520.000000, 78.430, -14.3344
5600.000000, 78.262, -14.9235
5700.000000, 77.982, -15.5830
5800.000000, 77.600, -16.0043
5900.000000, 77.093, -15.7800
6000.000000, 76.519, -14.2205
6080.000000, 76.101, -11.8912
6150.000000, 75.821, -9.3275
6220.000000, 75.643, -6.6125
6300.000000, 75.534, -3.7067
6400.000000, 75.475, -0.5054
6500.000000, 75.457, 2.2682
6600.000000, 75.455, 4.7034
6700.000000, 75.457, 6.9321
6800.000000, 75.453, 9.0419
6900.000000, 75.452, 11.0060
7000.000000, 75.441, 12.8749
7100.000000, 75.399, 14.7533
7200.000000, 75.326, 16.8020
7300.000000, 75.249, 19.2773
7400.000000, 75.215, 22.3401
7500.000000, 75.280, 25.7662
7620.000000, 75.512, 29.7874
7750.000000, 75.905, 33.6859
7880.000000, 76.422, 37.0195
8000.000000, 77.001, 39.2909
8120.000000, 77.638, 40.6610
8250.000000, 78.346, 41.2498
8380.000000, 79.102, 41.0780
8500.000000, 79.886, 39.7748
8620.000000, 80.670, 36.6902
8750.000000, 81.345, 31.2706
8850.000000, 81.655, 26.0497
9000.000000, 81.704, 17.6471
9120.000000, 81.399, 11.4521
9250.000000, 80.823, 6.1700
9380.000000, 80.142, 2.5325
9500.000000, 79.504, 0.3734
9620.000000, 78.890, -0.8636
9750.000000, 78.285, -1.2814
9880.000000, 77.794, -1.0081
10000.000000, 77.458, -0.5948
10150.000000, 77.167, -0.5059
10300.000000, 76.919, -1.3326
10440.000000, 76.600, -2.7491
10600.000000, 76.075, -4.1416
10750.000000, 75.490, -4.5205
10900.000000, 74.917, -3.8447
11060.000000, 74.431, -2.3115
11200.000000, 74.135, -0.9708
11380.000000, 73.855, 0.1072
11500.000000, 73.670, 0.4210
11720.000000, 73.254, 0.7444
11800.000000, 73.076, 0.9257
12060.000000, 72.468, 2.0833
12200.000000, 72.160, 3.1232
12410.000000, 71.786, 5.0766
12500.000000, 71.667, 5.9482
12650.000000, 71.509, 7.2877
12800.000000, 71.393, 8.3857
13150.000000, 71.192, 9.7144
13200.000000, 71.160, 9.7784
13400.000000, 71.013, 9.9344
13600.000000, 70.845, 10.0648
13800.000000, 70.691, 10.0787
14000.000000, 70.582, 9.8998
14300.000000, 70.483, 8.7965
14500.000000, 70.406, 7.1139
14750.000000, 70.192, 3.7393
15000.000000, 69.696, -0.4194
15250.000000, 68.873, -3.8699
15500.000000, 67.865, -5.5188
15750.000000, 66.815, -5.2277
16000.000000, 65.821, -3.1057
16250.000000, 64.985, 0.9377
16500.000000, 64.435, 6.3476
16750.000000, 64.218, 12.1838
17000.000000, 64.325, 17.5981
17250.000000, 64.650, 22.1661
17500.000000, 65.131, 26.0543
17750.000000, 65.844, 29.4077
18000.000000, 66.894, 31.6248
18250.000000, 68.274, 31.3463
18500.000000, 69.842, 27.1771
18750.000000, 71.311, 17.8613
19000.000000, 72.255, 3.3853
19250.000000, 72.228, -14.2062
19500.000000, 71.077, -31.2373
19750.000000, 69.192, -44.3505
20000.000000, 67.703, -51.9337
