* Measurement data measured by REW V5.31.3
* Source: Input device not selected, no input selected, L, volume: no control
* Format: 256k Log Swept Sine, 1 sweep at -12.0 dBFS with no timing reference
* Dated: Oct 30, 2024 6:39:10 PM
* REW Settings:
*  C-weighting compensation: Off
*  Target level: 75.0 dB
* Note: ; 
* Measurement: Wyvern Qing (Final E M) L
* Smoothing: 1/24 octave
* Frequency Step: 1/48 octave
* Start Frequency: 20.300 Hz
*
* Freq(Hz), SPL(dB), Phase(degrees)
20.299999, 80.026, -163.7323
20.600000, 80.020, -164.1585
20.900000, 80.015, -164.6067
21.200001, 80.012, -165.0601
21.400000, 80.013, -165.3727
21.799999, 80.021, -166.0298
22.000000, 80.025, -166.3701
22.400000, 80.031, -167.0487
22.700001, 80.032, -167.5327
23.000000, 80.031, -167.9810
23.299999, 80.029, -168.3927
23.600000, 80.027, -168.7766
24.000000, 80.024, -169.2694
24.299999, 80.021, -169.6400
24.700001, 80.015, -170.1470
25.000000, 80.010, -170.5377
25.400000, 80.002, -171.0697
25.799999, 79.993, -171.6086
26.200001, 79.982, -172.1419
26.500000, 79.973, -172.5257
26.900000, 79.959, -172.9969
27.200001, 79.949, -173.3126
27.600000, 79.937, -173.6896
28.000000, 79.929, -174.0435
28.500000, 79.917, -174.5034
29.000000, 79.895, -175.0028
29.500000, 79.856, -175.5074
30.000000, 79.811, -175.9771
30.400000, 79.777, -176.3332
30.700001, 79.757, -176.6062
31.100000, 79.735, -176.9992
31.500000, 79.713, -177.4292
32.000000, 79.681, -177.9825
32.500000, 79.645, -178.4909
33.000000, 79.620, -178.9316
33.500000, 79.617, -179.3516
34.000000, 79.632, -179.8037
34.500000, 79.650, 179.7329
35.000000, 79.658, 179.3479
35.500000, 79.656, 179.0966
36.000000, 79.647, 178.9202
36.500000, 79.628, 178.6871
37.000000, 79.590, 178.3181
37.500000, 79.535, 177.8456
38.200001, 79.463, 177.1479
38.700001, 79.439, 176.6395
39.500000, 79.425, 175.7902
40.000000, 79.399, 175.3577
40.599998, 79.352, 175.0855
41.200001, 79.315, 174.9812
41.799999, 79.291, 174.7864
42.500000, 79.233, 174.4018
43.099998, 79.149, 174.2128
43.700001, 79.075, 174.2533
44.400002, 79.046, 174.2545
45.000000, 79.050, 173.9818
45.500000, 79.052, 173.6556
46.200001, 79.053, 173.2932
46.799999, 79.056, 173.0418
47.500000, 79.035, 172.6115
48.200001, 78.964, 172.0622
48.700001, 78.896, 171.7120
49.400002, 78.814, 171.3486
50.000000, 78.764, 171.1279
50.799999, 78.710, 170.8971
51.500000, 78.664, 170.6897
52.200001, 78.617, 170.4518
53.000000, 78.565, 170.2030
53.799999, 78.517, 169.9915
54.500000, 78.471, 169.8051
55.200001, 78.425, 169.6177
56.000000, 78.380, 169.3894
57.000000, 78.314, 169.1021
58.000000, 78.237, 168.8298
59.000000, 78.175, 168.4393
60.000000, 78.121, 168.1715
60.799999, 78.083, 168.1364
61.500000, 78.045, 168.0825
62.200001, 78.001, 167.9468
63.000000, 77.950, 167.7434
64.000000, 77.890, 167.5143
65.000000, 77.825, 167.3527
66.000000, 77.763, 167.1885
67.000000, 77.703, 167.0377
68.000000, 77.647, 166.9347
69.000000, 77.589, 166.7696
70.000000, 77.522, 166.5802
71.000000, 77.451, 166.4409
72.000000, 77.379, 166.3633
73.000000, 77.318, 166.3141
74.000000, 77.262, 166.2468
75.000000, 77.212, 166.1543
76.199997, 77.155, 165.9600
77.500000, 77.075, 165.8354
78.800003, 76.996, 165.8022
80.000000, 76.928, 165.7858
81.199997, 76.861, 165.7725
82.500000, 76.792, 165.7698
83.800003, 76.716, 165.7287
85.000000, 76.644, 165.7052
86.199997, 76.584, 165.5942
87.500000, 76.508, 165.5421
88.500000, 76.453, 165.5812
90.000000, 76.374, 165.6433
91.199997, 76.315, 165.6531
92.500000, 76.247, 165.6781
93.800003, 76.178, 165.7615
95.000000, 76.117, 165.7643
96.199997, 76.056, 165.7523
97.500000, 75.985, 165.7868
98.800003, 75.917, 165.8600
100.000000, 75.863, 165.9504
101.500000, 75.794, 166.0358
103.000000, 75.726, 166.1378
104.400002, 75.662, 166.2621
106.000000, 75.580, 166.3710
107.500000, 75.509, 166.4459
109.000000, 75.441, 166.5334
110.599998, 75.366, 166.7205
112.000000, 75.303, 166.8655
113.800003, 75.229, 167.0115
115.000000, 75.173, 167.0926
117.199997, 75.068, 167.3831
118.000000, 75.035, 167.5188
120.599998, 74.944, 167.7420
122.000000, 74.886, 167.8512
124.099998, 74.789, 168.1537
125.000000, 74.755, 168.2993
126.500000, 74.710, 168.5137
128.000000, 74.658, 168.6355
131.500000, 74.506, 169.0502
132.000000, 74.487, 169.1331
134.000000, 74.424, 169.4330
136.000000, 74.358, 169.6886
138.000000, 74.285, 169.9667
140.000000, 74.212, 170.2991
143.000000, 74.111, 170.6900
145.000000, 74.043, 170.9930
147.500000, 73.959, 171.3904
150.000000, 73.870, 171.7597
152.500000, 73.787, 172.1776
155.000000, 73.708, 172.6218
157.500000, 73.628, 173.0084
160.000000, 73.555, 173.3989
162.500000, 73.489, 173.8332
165.000000, 73.418, 174.2565
167.500000, 73.347, 174.6017
170.000000, 73.275, 175.0155
172.500000, 73.207, 175.4697
175.000000, 73.134, 175.9474
177.500000, 73.059, 176.3950
180.000000, 72.991, 176.7895
182.500000, 72.936, 177.1996
185.000000, 72.877, 177.6652
187.500000, 72.814, 178.1146
190.000000, 72.752, 178.5525
192.500000, 72.696, 179.0363
195.000000, 72.642, 179.5615
197.500000, 72.586, -179.9370
200.000000, 72.536, -179.4884
203.000000, 72.474, -178.9617
206.000000, 72.407, -178.3991
209.000000, 72.346, -177.7445
212.000000, 72.285, -177.1018
214.000000, 72.245, -176.7380
218.000000, 72.171, -176.0444
220.000000, 72.133, -175.6610
224.000000, 72.064, -174.8141
227.000000, 72.020, -174.1339
230.000000, 71.977, -173.5010
233.000000, 71.939, -172.8932
236.000000, 71.909, -172.2721
240.000000, 71.860, -171.5479
243.000000, 71.817, -170.9825
247.000000, 71.764, -170.2492
250.000000, 71.722, -169.7438
254.000000, 71.682, -169.0761
258.000000, 71.654, -168.4249
262.000000, 71.617, -167.7790
265.000000, 71.580, -167.2631
269.000000, 71.531, -166.5763
272.000000, 71.497, -166.1111
276.000000, 71.448, -165.4776
280.000000, 71.402, -164.8143
285.000000, 71.345, -163.9634
290.000000, 71.288, -163.0970
295.000000, 71.243, -162.2047
300.000000, 71.192, -161.3621
304.000000, 71.145, -160.6808
307.000000, 71.112, -160.1247
311.000000, 71.070, -159.4015
315.000000, 71.027, -158.7260
320.000000, 70.974, -157.8986
325.000000, 70.932, -157.0392
330.000000, 70.888, -156.1784
335.000000, 70.848, -155.2879
340.000000, 70.818, -154.3790
345.000000, 70.781, -153.4473
350.000000, 70.741, -152.5659
355.000000, 70.707, -151.7793
360.000000, 70.672, -150.9491
365.000000, 70.637, -150.1566
370.000000, 70.607, -149.3092
375.000000, 70.584, -148.4320
382.000000, 70.544, -147.2279
387.000000, 70.513, -146.3955
395.000000, 70.467, -145.1162
400.000000, 70.439, -144.2403
406.000000, 70.407, -143.2040
412.000000, 70.377, -142.1678
418.000000, 70.353, -141.1842
425.000000, 70.326, -140.0574
431.000000, 70.294, -139.0720
437.000000, 70.262, -138.0955
444.000000, 70.230, -137.0238
450.000000, 70.214, -136.0546
455.000000, 70.194, -135.2493
462.000000, 70.164, -134.1344
468.000000, 70.145, -133.1194
475.000000, 70.121, -131.9611
482.000000, 70.105, -130.8389
487.000000, 70.094, -130.0682
494.000000, 70.081, -128.9599
500.000000, 70.070, -128.0021
508.000000, 70.051, -126.7571
515.000000, 70.038, -125.6915
522.000000, 70.028, -124.5997
530.000000, 70.017, -123.2994
538.000000, 70.009, -121.9734
545.000000, 70.011, -120.9075
552.000000, 70.010, -119.8919
560.000000, 70.002, -118.7025
570.000000, 69.991, -117.2280
580.000000, 69.987, -115.6915
590.000000, 69.985, -114.1529
600.000000, 69.978, -112.6208
608.000000, 69.975, -111.4526
615.000000, 69.972, -110.4420
622.000000, 69.972, -109.3588
630.000000, 69.976, -108.1196
640.000000, 69.983, -106.6241
650.000000, 69.989, -105.1704
660.000000, 69.991, -103.7234
670.000000, 69.997, -102.2019
680.000000, 69.999, -100.7179
690.000000, 70.006, -99.2467
700.000000, 70.018, -97.7539
710.000000, 70.032, -96.2538
720.000000, 70.053, -94.7710
730.000000, 70.078, -93.2788
740.000000, 70.099, -91.7633
750.000000, 70.121, -90.2626
762.000000, 70.147, -88.4843
775.000000, 70.182, -86.5588
788.000000, 70.222, -84.5990
800.000000, 70.258, -82.8037
812.000000, 70.300, -81.0187
825.000000, 70.357, -79.0946
838.000000, 70.416, -77.1601
850.000000, 70.470, -75.4140
862.000000, 70.529, -73.6922
875.000000, 70.600, -71.7725
885.000000, 70.658, -70.2904
900.000000, 70.750, -68.1173
912.000000, 70.827, -66.3705
925.000000, 70.918, -64.4577
938.000000, 71.016, -62.6070
950.000000, 71.115, -60.9271
962.000000, 71.218, -59.1812
975.000000, 71.332, -57.3357
988.000000, 71.451, -55.6182
1000.000000, 71.566, -54.0329
1015.000000, 71.733, -51.9739
1030.000000, 71.914, -50.0221
1044.000000, 72.094, -48.3338
1060.000000, 72.312, -46.4946
1075.000000, 72.519, -44.8984
1090.000000, 72.725, -43.4381
1106.000000, 72.943, -42.0298
1120.000000, 73.126, -40.9329
1138.000000, 73.343, -39.6702
1150.000000, 73.479, -38.8982
1172.000000, 73.706, -37.5268
1180.000000, 73.783, -37.0332
1206.000000, 73.999, -35.4624
1220.000000, 74.093, -34.6182
1241.000000, 74.214, -33.1976
1250.000000, 74.265, -32.4795
1265.000000, 74.362, -31.1744
1280.000000, 74.481, -29.8616
1315.000000, 74.812, -27.2085
1320.000000, 74.860, -26.8727
1340.000000, 75.046, -25.6163
1360.000000, 75.215, -24.4353
1380.000000, 75.369, -23.2351
1400.000000, 75.519, -22.0390
1430.000000, 75.739, -20.2852
1450.000000, 75.881, -19.1280
1475.000000, 76.057, -17.6602
1500.000000, 76.231, -16.1998
1525.000000, 76.406, -14.7879
1550.000000, 76.577, -13.4011
1575.000000, 76.750, -12.0531
1600.000000, 76.921, -10.7269
1625.000000, 77.095, -9.4193
1650.000000, 77.271, -8.1354
1675.000000, 77.444, -6.8956
1700.000000, 77.617, -5.7125
1725.000000, 77.788, -4.5776
1750.000000, 77.960, -3.4973
1775.000000, 78.129, -2.4392
1800.000000, 78.297, -1.4296
1825.000000, 78.463, -0.4636
1850.000000, 78.626, 0.4665
1875.000000, 78.788, 1.3323
1900.000000, 78.946, 2.1498
1925.000000, 79.100, 2.9040
1950.000000, 79.250, 3.6188
1975.000000, 79.397, 4.2849
2000.000000, 79.539, 4.9012
2030.000000, 79.699, 5.6011
2060.000000, 79.848, 6.2253
2090.000000, 79.989, 6.7998
2120.000000, 80.118, 7.3210
2140.000000, 80.198, 7.6503
2180.000000, 80.342, 8.2777
2200.000000, 80.406, 8.5726
2240.000000, 80.517, 9.1183
2270.000000, 80.587, 9.5286
2300.000000, 80.644, 9.9246
2330.000000, 80.689, 10.3189
2360.000000, 80.724, 10.7357
2400.000000, 80.753, 11.3356
2430.000000, 80.761, 11.8255
2470.000000, 80.757, 12.5466
2500.000000, 80.743, 13.1724
2540.000000, 80.718, 14.1077
2580.000000, 80.692, 15.1568
2620.000000, 80.674, 16.3164
2650.000000, 80.670, 17.2394
2690.000000, 80.676, 18.4802
2720.000000, 80.685, 19.3691
2760.000000, 80.697, 20.4932
2800.000000, 80.704, 21.5811
2850.000000, 80.702, 22.9368
2900.000000, 80.692, 24.3247
2950.000000, 80.675, 25.7675
3000.000000, 80.656, 27.3142
3040.000000, 80.650, 28.5810
3070.000000, 80.649, 29.5383
3110.000000, 80.653, 30.8369
3150.000000, 80.662, 32.1461
3200.000000, 80.687, 33.7668
3250.000000, 80.728, 35.3325
3300.000000, 80.780, 36.8383
3350.000000, 80.844, 38.2702
3400.000000, 80.920, 39.5920
3450.000000, 81.007, 40.7693
3500.000000, 81.101, 41.7585
3550.000000, 81.195, 42.5470
3600.000000, 81.286, 43.1306
3650.000000, 81.368, 43.4819
3700.000000, 81.433, 43.5902
3750.000000, 81.472, 43.4780
3820.000000, 81.471, 43.0059
3870.000000, 81.423, 42.4966
3950.000000, 81.253, 41.5417
4000.000000, 81.087, 40.9167
4060.000000, 80.830, 40.2212
4120.000000, 80.512, 39.6464
4180.000000, 80.138, 39.2479
4250.000000, 79.640, 39.0908
4310.000000, 79.169, 39.2529
4370.000000, 78.666, 39.7114
4440.000000, 78.047, 40.6256
4500.000000, 77.498, 41.7729
4550.000000, 77.034, 42.9652
4620.000000, 76.379, 44.9688
4680.000000, 75.816, 47.0052
4750.000000, 75.162, 49.7231
4820.000000, 74.525, 52.7867
4870.000000, 74.080, 55.1608
4940.000000, 73.469, 58.7157
5000.000000, 72.963, 61.9825
5080.000000, 72.321, 66.5411
5150.000000, 71.781, 70.7270
5220.000000, 71.253, 75.1918
5300.000000, 70.690, 80.7461
5380.000000, 70.226, 86.6797
5450.000000, 69.913, 91.4121
5520.000000, 69.581, 95.5968
5600.000000, 69.140, 100.5440
5700.000000, 68.587, 107.3621
5800.000000, 68.084, 114.4165
5900.000000, 67.630, 121.6345
6000.000000, 67.228, 129.0656
6080.000000, 66.932, 135.0800
6150.000000, 66.692, 140.3563
6220.000000, 66.472, 145.5836
6300.000000, 66.246, 151.5873
6400.000000, 65.989, 159.2085
6500.000000, 65.779, 166.8858
6600.000000, 65.612, 174.4583
6700.000000, 65.477, -178.0217
6800.000000, 65.360, -170.4077
6900.000000, 65.281, -162.7725
7000.000000, 65.247, -155.1751
7100.000000, 65.246, -147.5828
7200.000000, 65.280, -139.9888
7300.000000, 65.371, -132.4995
7400.000000, 65.501, -125.1573
7500.000000, 65.648, -117.9117
7620.000000, 65.873, -109.2311
7750.000000, 66.207, -100.0089
7880.000000, 66.612, -90.8896
8000.000000, 67.056, -82.5565
8120.000000, 67.575, -74.5273
8250.000000, 68.247, -66.1805
8380.000000, 69.043, -58.2350
8500.000000, 69.887, -51.4025
8620.000000, 70.859, -45.3443
8750.000000, 72.065, -39.9517
8850.000000, 73.085, -36.9781
9000.000000, 74.707, -35.2809
9120.000000, 75.946, -36.9919
9250.000000, 76.980, -42.0690
9380.000000, 77.440, -49.4064
9500.000000, 77.252, -56.3077
9620.000000, 76.552, -61.5146
9750.000000, 75.445, -64.0142
9880.000000, 74.229, -63.0802
10000.000000, 73.169, -59.6213
10150.000000, 72.039, -52.6206
10300.000000, 71.201, -43.3531
10440.000000, 70.752, -33.1240
10600.000000, 70.742, -20.2366
10750.000000, 71.319, -8.3669
10900.000000, 72.415, 1.2151
11060.000000, 73.873, 7.2228
11200.000000, 75.108, 8.9104
11380.000000, 76.401, 7.7076
11500.000000, 77.086, 5.8345
11720.000000, 78.144, 0.1505
11800.000000, 78.408, -3.0101
12060.000000, 78.392, -15.8361
12200.000000, 77.760, -22.5714
12410.000000, 76.144, -29.6801
12500.000000, 75.300, -31.2364
12650.000000, 73.820, -31.8474
12800.000000, 72.343, -30.3132
13150.000000, 69.255, -20.9268
13200.000000, 68.868, -19.1082
13400.000000, 67.475, -11.1378
13600.000000, 66.291, -2.7727
13800.000000, 65.248, 6.0055
14000.000000, 64.340, 15.2499
14300.000000, 63.248, 29.2296
14500.000000, 62.688, 38.3323
14750.000000, 62.166, 49.4021
15000.000000, 61.784, 60.0701
15250.000000, 61.551, 69.9697
15500.000000, 61.450, 79.0865
15750.000000, 61.414, 87.0116
16000.000000, 61.375, 93.8213
16250.000000, 61.302, 99.4351
16500.000000, 61.120, 104.0329
16750.000000, 60.800, 108.1265
17000.000000, 60.323, 112.2606
17250.000000, 59.695, 116.9481
17500.000000, 58.958, 122.3717
17750.000000, 58.168, 128.7260
18000.000000, 57.390, 135.9528
18250.000000, 56.674, 143.9135
18500.000000, 56.048, 152.1950
18750.000000, 55.505, 160.0052
19000.000000, 54.837, 166.1744
19250.000000, 53.714, 174.0441
19500.000000, 52.715, -171.9142
19750.000000, 52.333, -159.0158
20000.000000, 52.064, -151.9952
