* Measurement data measured by REW V5.31.3
* Source: Input device not selected, no input selected, L, volume: no control
* Format: 256k Log Swept Sine, 1 sweep at -12.0 dBFS with no timing reference
* Dated: Oct 30, 2024 6:37:50 PM
* REW Settings:
*  C-weighting compensation: Off
*  Target level: 75.0 dB
* Note: ; 
* Measurement: Wyvern Qing (Stock M) L
* Smoothing: 1/24 octave
* Frequency Step: 1/48 octave
* Start Frequency: 20.300 Hz
*
* Freq(Hz), SPL(dB), Phase(degrees)
20.299999, 80.509, -165.1690
20.600000, 80.509, -165.6282
20.900000, 80.509, -166.1469
21.200001, 80.507, -166.6903
21.400000, 80.505, -167.0571
21.799999, 80.497, -167.7688
22.000000, 80.493, -168.0993
22.400000, 80.484, -168.6940
22.700001, 80.479, -169.0932
23.000000, 80.476, -169.4783
23.299999, 80.473, -169.8754
23.600000, 80.469, -170.3017
24.000000, 80.459, -170.9176
24.299999, 80.449, -171.3992
24.700001, 80.438, -172.0356
25.000000, 80.433, -172.4927
25.400000, 80.434, -173.0655
25.799999, 80.438, -173.5943
26.200001, 80.440, -174.0767
26.500000, 80.435, -174.4080
26.900000, 80.423, -174.8203
27.200001, 80.410, -175.1246
27.600000, 80.391, -175.5547
28.000000, 80.369, -176.0312
28.500000, 80.339, -176.6670
29.000000, 80.309, -177.2725
29.500000, 80.287, -177.8046
30.000000, 80.275, -178.3024
30.400000, 80.266, -178.7138
30.700001, 80.256, -179.0297
31.100000, 80.235, -179.4359
31.500000, 80.211, -179.7960
32.000000, 80.187, 179.8169
32.500000, 80.173, 179.4325
33.000000, 80.156, 178.9901
33.500000, 80.122, 178.5206
34.000000, 80.072, 178.1082
34.500000, 80.027, 177.7771
35.000000, 80.004, 177.4415
35.500000, 79.997, 176.9961
36.000000, 79.985, 176.4436
36.500000, 79.950, 175.9162
37.000000, 79.900, 175.5512
37.500000, 79.860, 175.3459
38.200001, 79.839, 175.0156
38.700001, 79.828, 174.5680
39.500000, 79.752, 173.7169
40.000000, 79.683, 173.3708
40.599998, 79.625, 173.1752
41.200001, 79.610, 172.9709
41.799999, 79.609, 172.5970
42.500000, 79.582, 172.0784
43.099998, 79.539, 171.7068
43.700001, 79.491, 171.3853
44.400002, 79.429, 171.0355
45.000000, 79.378, 170.8446
45.500000, 79.352, 170.7882
46.200001, 79.351, 170.6593
46.799999, 79.354, 170.2516
47.500000, 79.298, 169.4620
48.200001, 79.169, 168.7991
48.700001, 79.072, 168.6198
49.400002, 78.985, 168.7220
50.000000, 78.968, 168.9035
50.799999, 78.997, 168.9452
51.500000, 79.033, 168.6327
52.200001, 79.041, 168.0027
53.000000, 78.989, 167.1517
53.799999, 78.887, 166.4646
54.500000, 78.779, 166.1179
55.200001, 78.674, 166.0105
56.000000, 78.577, 166.0554
57.000000, 78.497, 166.1224
58.000000, 78.453, 166.1108
59.000000, 78.418, 166.0123
60.000000, 78.378, 165.8485
60.799999, 78.350, 165.6145
61.500000, 78.320, 165.3600
62.200001, 78.282, 165.1655
63.000000, 78.237, 165.0320
64.000000, 78.183, 164.8215
65.000000, 78.118, 164.5702
66.000000, 78.048, 164.4317
67.000000, 77.980, 164.3694
68.000000, 77.916, 164.2958
69.000000, 77.856, 164.1564
70.000000, 77.786, 163.9478
71.000000, 77.707, 163.7578
72.000000, 77.624, 163.5720
73.000000, 77.530, 163.3515
74.000000, 77.440, 163.1324
75.000000, 77.376, 162.8830
76.199997, 77.322, 162.4949
77.500000, 77.263, 162.1103
78.800003, 77.206, 162.0325
80.000000, 77.147, 162.1384
81.199997, 77.072, 162.2804
82.500000, 76.988, 162.3813
83.800003, 76.901, 162.2758
85.000000, 76.828, 162.0496
86.199997, 76.775, 161.8876
87.500000, 76.724, 161.9221
88.500000, 76.672, 162.0096
90.000000, 76.575, 161.9582
91.199997, 76.509, 161.8565
92.500000, 76.448, 161.8326
93.800003, 76.365, 161.8674
95.000000, 76.290, 161.8387
96.199997, 76.232, 161.8203
97.500000, 76.168, 161.8915
98.800003, 76.097, 161.9726
100.000000, 76.041, 162.0157
101.500000, 75.972, 162.0705
103.000000, 75.895, 162.0924
104.400002, 75.823, 162.1295
106.000000, 75.742, 162.2016
107.500000, 75.672, 162.3032
109.000000, 75.607, 162.3896
110.599998, 75.546, 162.4189
112.000000, 75.483, 162.4825
113.800003, 75.397, 162.6543
115.000000, 75.338, 162.7537
117.199997, 75.235, 162.9313
118.000000, 75.205, 163.0212
120.599998, 75.092, 163.2487
122.000000, 75.029, 163.3773
124.099998, 74.950, 163.5604
125.000000, 74.918, 163.6341
126.500000, 74.865, 163.7856
128.000000, 74.812, 163.9336
131.500000, 74.668, 164.2947
132.000000, 74.646, 164.3542
134.000000, 74.562, 164.5569
136.000000, 74.488, 164.7845
138.000000, 74.420, 165.0686
140.000000, 74.350, 165.3140
143.000000, 74.238, 165.6738
145.000000, 74.162, 165.8699
147.500000, 74.083, 166.0891
150.000000, 74.000, 166.3934
152.500000, 73.922, 166.8056
155.000000, 73.848, 167.1930
157.500000, 73.769, 167.5298
160.000000, 73.684, 167.7972
162.500000, 73.600, 168.1323
165.000000, 73.524, 168.4845
167.500000, 73.456, 168.7957
170.000000, 73.387, 169.1700
172.500000, 73.313, 169.5944
175.000000, 73.247, 169.9834
177.500000, 73.188, 170.3395
180.000000, 73.129, 170.6856
182.500000, 73.069, 171.0405
185.000000, 73.006, 171.3723
187.500000, 72.935, 171.7202
190.000000, 72.871, 172.1031
192.500000, 72.815, 172.4899
195.000000, 72.763, 172.8846
197.500000, 72.707, 173.2751
200.000000, 72.647, 173.6346
203.000000, 72.582, 174.0482
206.000000, 72.520, 174.5270
209.000000, 72.459, 174.9937
212.000000, 72.395, 175.4803
214.000000, 72.355, 175.8038
218.000000, 72.276, 176.4156
220.000000, 72.240, 176.7191
224.000000, 72.170, 177.3681
227.000000, 72.111, 177.8272
230.000000, 72.052, 178.2975
233.000000, 71.993, 178.8173
236.000000, 71.938, 179.2775
240.000000, 71.866, 179.8420
243.000000, 71.816, -179.6645
247.000000, 71.751, -178.9944
250.000000, 71.703, -178.4974
254.000000, 71.652, -177.8356
258.000000, 71.595, -177.2501
262.000000, 71.526, -176.5781
265.000000, 71.476, -176.0662
269.000000, 71.422, -175.3904
272.000000, 71.382, -174.8525
276.000000, 71.325, -174.0997
280.000000, 71.280, -173.3886
285.000000, 71.229, -172.5239
290.000000, 71.174, -171.6335
295.000000, 71.124, -170.7049
300.000000, 71.078, -169.6685
304.000000, 71.063, -168.7275
307.000000, 71.052, -168.0295
311.000000, 71.037, -167.2312
315.000000, 71.032, -166.6542
320.000000, 71.038, -166.0839
325.000000, 71.034, -165.5998
330.000000, 71.014, -165.2460
335.000000, 70.992, -164.7619
340.000000, 70.950, -164.2107
345.000000, 70.895, -163.6279
350.000000, 70.853, -162.9885
355.000000, 70.819, -162.3603
360.000000, 70.780, -161.7375
365.000000, 70.741, -161.1247
370.000000, 70.704, -160.4799
375.000000, 70.659, -159.7680
382.000000, 70.603, -158.8182
387.000000, 70.574, -158.1461
395.000000, 70.532, -157.1240
400.000000, 70.510, -156.4637
406.000000, 70.481, -155.6089
412.000000, 70.440, -154.7669
418.000000, 70.393, -153.9158
425.000000, 70.352, -152.9612
431.000000, 70.328, -152.1990
437.000000, 70.307, -151.4144
444.000000, 70.285, -150.5569
450.000000, 70.260, -149.7889
455.000000, 70.238, -149.1288
462.000000, 70.206, -148.2095
468.000000, 70.182, -147.4271
475.000000, 70.161, -146.5565
482.000000, 70.135, -145.6442
487.000000, 70.116, -144.9741
494.000000, 70.088, -144.0385
500.000000, 70.069, -143.2280
508.000000, 70.053, -142.2182
515.000000, 70.036, -141.3612
522.000000, 70.005, -140.4908
530.000000, 69.980, -139.4478
538.000000, 69.960, -138.3886
545.000000, 69.939, -137.4951
552.000000, 69.920, -136.5574
560.000000, 69.904, -135.4018
570.000000, 69.898, -133.9036
580.000000, 69.915, -132.4381
590.000000, 69.949, -131.1206
600.000000, 69.975, -129.9708
608.000000, 69.987, -129.1249
615.000000, 69.989, -128.4170
622.000000, 69.988, -127.7433
630.000000, 69.981, -126.9088
640.000000, 69.965, -125.7624
650.000000, 69.960, -124.5158
660.000000, 69.958, -123.2948
670.000000, 69.957, -122.1384
680.000000, 69.966, -120.8812
690.000000, 69.973, -119.6800
700.000000, 69.974, -118.5496
710.000000, 69.982, -117.4181
720.000000, 70.002, -116.2672
730.000000, 70.021, -115.0885
740.000000, 70.031, -113.9192
750.000000, 70.040, -112.7230
762.000000, 70.057, -111.2585
775.000000, 70.088, -109.6747
788.000000, 70.125, -108.0514
800.000000, 70.162, -106.5767
812.000000, 70.197, -105.1714
825.000000, 70.239, -103.6751
838.000000, 70.282, -102.1311
850.000000, 70.336, -100.7371
862.000000, 70.392, -99.2825
875.000000, 70.455, -97.7362
885.000000, 70.502, -96.5824
900.000000, 70.578, -94.8730
912.000000, 70.650, -93.4797
925.000000, 70.733, -91.9623
938.000000, 70.823, -90.4728
950.000000, 70.911, -89.0920
962.000000, 71.005, -87.6960
975.000000, 71.115, -86.2099
988.000000, 71.228, -84.8460
1000.000000, 71.339, -83.6128
1015.000000, 71.494, -81.9314
1030.000000, 71.661, -80.4132
1044.000000, 71.825, -79.0949
1060.000000, 72.029, -77.7092
1075.000000, 72.228, -76.5602
1090.000000, 72.422, -75.5038
1106.000000, 72.624, -74.5250
1120.000000, 72.795, -73.8219
1138.000000, 72.997, -73.0140
1150.000000, 73.120, -72.5302
1172.000000, 73.321, -71.6992
1180.000000, 73.388, -71.4105
1206.000000, 73.585, -70.5255
1220.000000, 73.670, -70.0404
1241.000000, 73.769, -69.1605
1250.000000, 73.813, -68.6663
1265.000000, 73.902, -67.7190
1280.000000, 74.014, -66.7692
1315.000000, 74.317, -64.9777
1320.000000, 74.360, -64.7670
1340.000000, 74.526, -63.9994
1360.000000, 74.677, -63.2761
1380.000000, 74.815, -62.5506
1400.000000, 74.948, -61.8317
1430.000000, 75.142, -60.8185
1450.000000, 75.270, -60.0791
1475.000000, 75.427, -59.1809
1500.000000, 75.583, -58.2985
1525.000000, 75.738, -57.4074
1550.000000, 75.892, -56.5331
1575.000000, 76.049, -55.6476
1600.000000, 76.208, -54.7821
1625.000000, 76.366, -53.9887
1650.000000, 76.525, -53.2385
1675.000000, 76.688, -52.4736
1700.000000, 76.855, -51.7249
1725.000000, 77.021, -51.0163
1750.000000, 77.189, -50.3759
1775.000000, 77.355, -49.7683
1800.000000, 77.521, -49.1723
1825.000000, 77.689, -48.6253
1850.000000, 77.855, -48.1432
1875.000000, 78.023, -47.7137
1900.000000, 78.193, -47.3073
1925.000000, 78.361, -46.9412
1950.000000, 78.530, -46.6328
1975.000000, 78.699, -46.3742
2000.000000, 78.865, -46.1662
2030.000000, 79.057, -45.9846
2060.000000, 79.246, -45.8671
2090.000000, 79.430, -45.8345
2120.000000, 79.610, -45.8779
2140.000000, 79.726, -45.9441
2180.000000, 79.949, -46.1819
2200.000000, 80.056, -46.3464
2240.000000, 80.261, -46.7532
2270.000000, 80.402, -47.1106
2300.000000, 80.533, -47.5301
2330.000000, 80.652, -48.0084
2360.000000, 80.758, -48.5170
2400.000000, 80.883, -49.2409
2430.000000, 80.961, -49.8116
2470.000000, 81.043, -50.5912
2500.000000, 81.091, -51.1900
2540.000000, 81.138, -51.9966
2580.000000, 81.167, -52.7860
2620.000000, 81.174, -53.5308
2650.000000, 81.168, -54.0606
2690.000000, 81.147, -54.7308
2720.000000, 81.122, -55.1901
2760.000000, 81.075, -55.7471
2800.000000, 81.015, -56.2279
2850.000000, 80.932, -56.7119
2900.000000, 80.841, -57.0810
2950.000000, 80.739, -57.3337
3000.000000, 80.634, -57.4815
3040.000000, 80.553, -57.5210
3070.000000, 80.493, -57.5131
3110.000000, 80.414, -57.4623
3150.000000, 80.334, -57.3667
3200.000000, 80.238, -57.1812
3250.000000, 80.150, -56.9552
3300.000000, 80.068, -56.6864
3350.000000, 79.994, -56.3902
3400.000000, 79.926, -56.0867
3450.000000, 79.865, -55.7834
3500.000000, 79.814, -55.4696
3550.000000, 79.769, -55.1784
3600.000000, 79.728, -54.9266
3650.000000, 79.692, -54.7227
3700.000000, 79.662, -54.5799
3750.000000, 79.636, -54.5007
3820.000000, 79.599, -54.4890
3870.000000, 79.571, -54.5814
3950.000000, 79.521, -54.8918
4000.000000, 79.481, -55.2073
4060.000000, 79.417, -55.6573
4120.000000, 79.335, -56.2195
4180.000000, 79.234, -56.8657
4250.000000, 79.087, -57.7289
4310.000000, 78.934, -58.5157
4370.000000, 78.754, -59.2905
4440.000000, 78.505, -60.1836
4500.000000, 78.260, -60.8886
4550.000000, 78.033, -61.4179
4620.000000, 77.688, -62.0270
4680.000000, 77.370, -62.4167
4750.000000, 76.979, -62.6681
4820.000000, 76.563, -62.6946
4870.000000, 76.255, -62.5648
4940.000000, 75.814, -62.1782
5000.000000, 75.431, -61.6825
5080.000000, 74.915, -60.7149
5150.000000, 74.459, -59.6067
5220.000000, 74.002, -58.1995
5300.000000, 73.500, -56.0568
5380.000000, 73.095, -53.4762
5450.000000, 72.828, -51.6072
5520.000000, 72.532, -50.1934
5600.000000, 72.127, -48.3710
5700.000000, 71.618, -45.5502
5800.000000, 71.146, -42.3361
5900.000000, 70.719, -38.9128
6000.000000, 70.334, -35.2555
6080.000000, 70.056, -32.2847
6150.000000, 69.830, -29.6402
6220.000000, 69.625, -26.9632
6300.000000, 69.407, -23.7913
6400.000000, 69.173, -19.7586
6500.000000, 68.975, -15.8020
6600.000000, 68.813, -11.7548
6700.000000, 68.693, -7.6188
6800.000000, 68.608, -3.4784
6900.000000, 68.565, 0.6504
7000.000000, 68.571, 4.7855
7100.000000, 68.630, 8.9519
7200.000000, 68.740, 13.0619
7300.000000, 68.898, 17.0210
7400.000000, 69.108, 20.9027
7500.000000, 69.374, 24.6801
7620.000000, 69.776, 29.0221
7750.000000, 70.346, 33.4235
7880.000000, 71.050, 37.4063
8000.000000, 71.845, 40.5031
8120.000000, 72.813, 42.7257
8250.000000, 74.082, 43.5476
8380.000000, 75.568, 41.7400
8500.000000, 77.021, 36.5216
8620.000000, 78.271, 27.0424
8750.000000, 78.944, 12.5619
8850.000000, 78.753, 0.3006
9000.000000, 77.374, -15.4565
9120.000000, 75.697, -23.6247
9250.000000, 73.749, -27.9893
9380.000000, 71.922, -28.8713
9500.000000, 70.425, -27.6435
9620.000000, 69.102, -25.1255
9750.000000, 67.838, -21.3779
9880.000000, 66.736, -16.8436
10000.000000, 65.852, -12.0727
10150.000000, 64.912, -5.3374
10300.000000, 64.153, 2.2734
10440.000000, 63.649, 10.3084
10600.000000, 63.433, 20.2089
10750.000000, 63.684, 29.1933
10900.000000, 64.337, 36.2332
11060.000000, 65.230, 40.5725
11200.000000, 65.919, 41.6299
11380.000000, 66.473, 40.8227
11500.000000, 66.655, 40.2391
11720.000000, 66.872, 39.7442
11800.000000, 66.929, 39.5313
12060.000000, 66.990, 38.8711
12200.000000, 67.000, 38.6682
12410.000000, 67.040, 38.2828
12500.000000, 67.059, 37.9512
12650.000000, 67.072, 37.1443
12800.000000, 67.041, 36.0930
13150.000000, 66.722, 33.0978
13200.000000, 66.651, 32.6748
13400.000000, 66.323, 31.0518
13600.000000, 65.902, 29.4584
13800.000000, 65.362, 28.4763
14000.000000, 64.768, 28.3372
14300.000000, 63.887, 29.6227
14500.000000, 63.360, 31.2707
14750.000000, 62.817, 34.0394
15000.000000, 62.419, 37.4134
15250.000000, 62.197, 41.0936
15500.000000, 62.169, 44.7353
15750.000000, 62.329, 48.3061
16000.000000, 62.707, 51.5697
16250.000000, 63.334, 54.0619
16500.000000, 64.270, 55.4419
16750.000000, 65.562, 54.5649
17000.000000, 67.124, 49.5802
17250.000000, 68.617, 38.8170
17500.000000, 69.399, 22.3183
17750.000000, 68.956, 3.6844
18000.000000, 67.335, -11.9097
18250.000000, 65.091, -21.8071
18500.000000, 62.825, -26.6222
18750.000000, 60.834, -28.9123
19000.000000, 58.970, -31.3494
19250.000000, 56.724, -31.6270
19500.000000, 54.462, -24.8382
19750.000000, 53.219, -17.5780
20000.000000, 52.896, -14.0029
