* Measurement data measured by REW V5.40 beta 102
* Source: Input device not selected, no input selected, L, volume: no control
* Format: 256k Log Swept Sine, 1 sweep at -11.0 dBFS with no timing reference
* Dated: Feb 1, 2026 8:55:53 AM
* REW Settings:
*  C-weighting compensation: Off
*  Target level: 75.0 dB
* Note: ; 
* Measurement: YU9 Que (FX12 M) L
* Smoothing: 1/24 octave
* Frequency Step: 1/48 octave
* Start Frequency: 20.300 Hz
*
* Freq(Hz), SPL(dB), Phase(degrees)
20.299999, 84.653, -164.2388
20.600000, 84.668, -164.7910
20.900000, 84.685, -165.4108
21.200001, 84.703, -166.0355
21.400000, 84.716, -166.4522
21.799999, 84.741, -167.2812
22.000000, 84.753, -167.6893
22.400000, 84.773, -168.4819
22.700001, 84.788, -169.0526
23.000000, 84.802, -169.6076
23.299999, 84.817, -170.1573
23.600000, 84.833, -170.7139
24.000000, 84.855, -171.4814
24.299999, 84.870, -172.0779
24.700001, 84.889, -172.8909
25.000000, 84.902, -173.5030
25.400000, 84.920, -174.3100
25.799999, 84.939, -175.1004
26.200001, 84.958, -175.8725
26.500000, 84.970, -176.4370
26.900000, 84.981, -177.1636
27.200001, 84.986, -177.6851
27.600000, 84.990, -178.3497
28.000000, 84.992, -178.9906
28.500000, 84.996, -179.7829
29.000000, 85.004, 179.4208
29.500000, 85.013, 178.6314
30.000000, 85.024, 177.8614
30.400000, 85.032, 177.2534
30.700001, 85.036, 176.7960
31.100000, 85.037, 176.1818
31.500000, 85.032, 175.5713
32.000000, 85.020, 174.8333
32.500000, 85.010, 174.1304
33.000000, 85.003, 173.4439
33.500000, 84.997, 172.7545
34.000000, 84.987, 172.0629
34.500000, 84.976, 171.3730
35.000000, 84.970, 170.6707
35.500000, 84.972, 169.9420
36.000000, 84.977, 169.2090
36.500000, 84.978, 168.5243
37.000000, 84.971, 167.9191
37.500000, 84.958, 167.3708
38.200001, 84.937, 166.5973
38.700001, 84.927, 165.9904
39.500000, 84.928, 164.9108
40.000000, 84.930, 164.2136
40.599998, 84.914, 163.4539
41.200001, 84.884, 162.8339
41.799999, 84.858, 162.2726
42.500000, 84.843, 161.5143
43.099998, 84.835, 160.7625
43.700001, 84.822, 160.0027
44.400002, 84.796, 159.1414
45.000000, 84.761, 158.4240
45.500000, 84.727, 157.8796
46.200001, 84.697, 157.2225
46.799999, 84.697, 156.6648
47.500000, 84.703, 155.9199
48.200001, 84.688, 155.1465
48.700001, 84.670, 154.6280
49.400002, 84.648, 153.9135
50.000000, 84.629, 153.2758
50.799999, 84.592, 152.4560
51.500000, 84.555, 151.8088
52.200001, 84.524, 151.1649
53.000000, 84.493, 150.3876
53.799999, 84.463, 149.6168
54.500000, 84.436, 148.9769
55.200001, 84.409, 148.3595
56.000000, 84.378, 147.6595
57.000000, 84.335, 146.7718
58.000000, 84.287, 145.8883
59.000000, 84.247, 145.0316
60.000000, 84.212, 144.2059
60.799999, 84.180, 143.5542
61.500000, 84.151, 142.9516
62.200001, 84.119, 142.3212
63.000000, 84.080, 141.6406
64.000000, 84.031, 140.8894
65.000000, 83.983, 140.1561
66.000000, 83.937, 139.4090
67.000000, 83.899, 138.6362
68.000000, 83.860, 137.8462
69.000000, 83.814, 137.0873
70.000000, 83.762, 136.3825
71.000000, 83.712, 135.6762
72.000000, 83.667, 134.9384
73.000000, 83.623, 134.2260
74.000000, 83.574, 133.5343
75.000000, 83.525, 132.8320
76.199997, 83.471, 131.9990
77.500000, 83.412, 131.1371
78.800003, 83.351, 130.3011
80.000000, 83.290, 129.5497
81.199997, 83.222, 128.7799
82.500000, 83.156, 127.9503
83.800003, 83.097, 127.1310
85.000000, 83.038, 126.3888
86.199997, 82.978, 125.6578
87.500000, 82.912, 124.8996
88.500000, 82.860, 124.3217
90.000000, 82.780, 123.4528
91.199997, 82.717, 122.7604
92.500000, 82.651, 122.0609
93.800003, 82.586, 121.3872
95.000000, 82.521, 120.7599
96.199997, 82.455, 120.1433
97.500000, 82.381, 119.4703
98.800003, 82.302, 118.8380
100.000000, 82.229, 118.2627
101.500000, 82.136, 117.5203
103.000000, 82.041, 116.8199
104.400002, 81.956, 116.2192
106.000000, 81.857, 115.5660
107.500000, 81.750, 115.0142
109.000000, 81.642, 114.6154
110.599998, 81.534, 114.3011
112.000000, 81.432, 114.0967
113.800003, 81.302, 114.0877
115.000000, 81.256, 114.1995
117.199997, 81.253, 114.3341
118.000000, 81.258, 114.3046
120.599998, 81.313, 113.9365
122.000000, 81.352, 113.5544
124.099998, 81.383, 112.6741
125.000000, 81.388, 112.2091
126.500000, 81.381, 111.4413
128.000000, 81.352, 110.7301
131.500000, 81.262, 109.2265
132.000000, 81.250, 109.0269
134.000000, 81.205, 108.2066
136.000000, 81.160, 107.3650
138.000000, 81.102, 106.5768
140.000000, 81.041, 105.8622
143.000000, 80.943, 104.8409
145.000000, 80.878, 104.1583
147.500000, 80.798, 103.3750
150.000000, 80.717, 102.6654
152.500000, 80.641, 102.0305
155.000000, 80.566, 101.4340
157.500000, 80.488, 100.8630
160.000000, 80.411, 100.2451
162.500000, 80.341, 99.6217
165.000000, 80.276, 99.0352
167.500000, 80.214, 98.5038
170.000000, 80.148, 97.9935
172.500000, 80.080, 97.4643
175.000000, 80.015, 96.9491
177.500000, 79.953, 96.4795
180.000000, 79.898, 96.0225
182.500000, 79.845, 95.5687
185.000000, 79.793, 95.1073
187.500000, 79.737, 94.6602
190.000000, 79.682, 94.2639
192.500000, 79.627, 93.8695
195.000000, 79.573, 93.4750
197.500000, 79.523, 93.1096
200.000000, 79.475, 92.7794
203.000000, 79.417, 92.4071
206.000000, 79.361, 92.0226
209.000000, 79.313, 91.6447
212.000000, 79.267, 91.2579
214.000000, 79.238, 90.9929
218.000000, 79.180, 90.4950
220.000000, 79.149, 90.2641
224.000000, 79.085, 89.8365
227.000000, 79.038, 89.5334
230.000000, 78.995, 89.2421
233.000000, 78.953, 88.9565
236.000000, 78.915, 88.6792
240.000000, 78.864, 88.3309
243.000000, 78.825, 88.0644
247.000000, 78.778, 87.6960
250.000000, 78.744, 87.4603
254.000000, 78.700, 87.1788
258.000000, 78.655, 86.9131
262.000000, 78.611, 86.6378
265.000000, 78.580, 86.4396
269.000000, 78.540, 86.1917
272.000000, 78.513, 86.0056
276.000000, 78.479, 85.7755
280.000000, 78.445, 85.5615
285.000000, 78.400, 85.3037
290.000000, 78.358, 85.0665
295.000000, 78.319, 84.8401
300.000000, 78.278, 84.6496
304.000000, 78.244, 84.4877
307.000000, 78.219, 84.3787
311.000000, 78.187, 84.2536
315.000000, 78.153, 84.1534
320.000000, 78.108, 84.0757
325.000000, 78.058, 84.0260
330.000000, 78.012, 84.0448
335.000000, 77.970, 84.1732
340.000000, 77.934, 84.4092
345.000000, 77.924, 84.7319
350.000000, 77.946, 85.0302
355.000000, 77.991, 85.1996
360.000000, 78.040, 85.1946
365.000000, 78.081, 85.0163
370.000000, 78.105, 84.7689
375.000000, 78.114, 84.5122
382.000000, 78.108, 84.2018
387.000000, 78.095, 84.0014
395.000000, 78.069, 83.7619
400.000000, 78.051, 83.6781
406.000000, 78.031, 83.5921
412.000000, 78.008, 83.5208
418.000000, 77.987, 83.5090
425.000000, 77.961, 83.5111
431.000000, 77.941, 83.5152
437.000000, 77.921, 83.5431
444.000000, 77.896, 83.6111
450.000000, 77.876, 83.7019
455.000000, 77.862, 83.7986
462.000000, 77.844, 83.9056
468.000000, 77.827, 83.9857
475.000000, 77.810, 84.1107
482.000000, 77.792, 84.2794
487.000000, 77.777, 84.4055
494.000000, 77.760, 84.6028
500.000000, 77.748, 84.7762
508.000000, 77.730, 84.9876
515.000000, 77.715, 85.1804
522.000000, 77.700, 85.4002
530.000000, 77.684, 85.6815
538.000000, 77.668, 85.9994
545.000000, 77.654, 86.2799
552.000000, 77.639, 86.5632
560.000000, 77.626, 86.8917
570.000000, 77.613, 87.3332
580.000000, 77.598, 87.8148
590.000000, 77.583, 88.3058
600.000000, 77.568, 88.7948
608.000000, 77.558, 89.1859
615.000000, 77.552, 89.5460
622.000000, 77.547, 89.9202
630.000000, 77.540, 90.3616
640.000000, 77.531, 90.9276
650.000000, 77.523, 91.5122
660.000000, 77.519, 92.1373
670.000000, 77.517, 92.7532
680.000000, 77.514, 93.3745
690.000000, 77.514, 94.0240
700.000000, 77.515, 94.6869
710.000000, 77.517, 95.3726
720.000000, 77.521, 96.0879
730.000000, 77.527, 96.7987
740.000000, 77.536, 97.5065
750.000000, 77.548, 98.2242
762.000000, 77.566, 99.1302
775.000000, 77.591, 100.1271
788.000000, 77.619, 101.1180
800.000000, 77.646, 102.0367
812.000000, 77.678, 102.9934
825.000000, 77.717, 104.0433
838.000000, 77.765, 105.0737
850.000000, 77.813, 106.0264
862.000000, 77.864, 106.9701
875.000000, 77.926, 108.0021
885.000000, 77.977, 108.8032
900.000000, 78.057, 109.9926
912.000000, 78.128, 110.9267
925.000000, 78.210, 111.9229
938.000000, 78.298, 112.9033
950.000000, 78.383, 113.7875
962.000000, 78.470, 114.6494
975.000000, 78.571, 115.5530
988.000000, 78.673, 116.4183
1000.000000, 78.769, 117.1897
1015.000000, 78.896, 118.1497
1030.000000, 79.028, 119.0408
1044.000000, 79.150, 119.8212
1060.000000, 79.291, 120.6585
1075.000000, 79.424, 121.3768
1090.000000, 79.559, 122.0479
1106.000000, 79.699, 122.7193
1120.000000, 79.819, 123.2694
1138.000000, 79.972, 123.9167
1150.000000, 80.072, 124.3095
1172.000000, 80.251, 124.9653
1180.000000, 80.314, 125.1879
1206.000000, 80.508, 125.8565
1220.000000, 80.607, 126.1790
1241.000000, 80.748, 126.6441
1250.000000, 80.807, 126.8378
1265.000000, 80.901, 127.1389
1280.000000, 80.990, 127.4204
1315.000000, 81.183, 128.0586
1320.000000, 81.209, 128.1465
1340.000000, 81.309, 128.4876
1360.000000, 81.402, 128.8221
1380.000000, 81.488, 129.1626
1400.000000, 81.569, 129.4987
1430.000000, 81.682, 130.0221
1450.000000, 81.754, 130.3821
1475.000000, 81.839, 130.8279
1500.000000, 81.918, 131.2929
1525.000000, 81.994, 131.7651
1550.000000, 82.067, 132.2409
1575.000000, 82.136, 132.7255
1600.000000, 82.200, 133.2187
1625.000000, 82.264, 133.7198
1650.000000, 82.328, 134.2346
1675.000000, 82.389, 134.7484
1700.000000, 82.448, 135.2581
1725.000000, 82.505, 135.7693
1750.000000, 82.561, 136.2700
1775.000000, 82.617, 136.7704
1800.000000, 82.672, 137.2781
1825.000000, 82.727, 137.7820
1850.000000, 82.782, 138.2769
1875.000000, 82.834, 138.7718
1900.000000, 82.886, 139.2626
1925.000000, 82.938, 139.7415
1950.000000, 82.988, 140.2048
1975.000000, 83.037, 140.6559
2000.000000, 83.084, 141.1019
2030.000000, 83.140, 141.6379
2060.000000, 83.194, 142.1515
2090.000000, 83.248, 142.6475
2120.000000, 83.299, 143.1313
2140.000000, 83.331, 143.4482
2180.000000, 83.394, 144.0647
2200.000000, 83.423, 144.3610
2240.000000, 83.479, 144.9264
2270.000000, 83.518, 145.3388
2300.000000, 83.554, 145.7486
2330.000000, 83.587, 146.1384
2360.000000, 83.619, 146.5158
2400.000000, 83.656, 147.0162
2430.000000, 83.680, 147.3843
2470.000000, 83.708, 147.8635
2500.000000, 83.724, 148.2183
2540.000000, 83.741, 148.6964
2580.000000, 83.755, 149.1730
2620.000000, 83.766, 149.6518
2650.000000, 83.771, 150.0135
2690.000000, 83.773, 150.4983
2720.000000, 83.772, 150.8740
2760.000000, 83.769, 151.3959
2800.000000, 83.766, 151.9444
2850.000000, 83.761, 152.6372
2900.000000, 83.756, 153.3305
2950.000000, 83.749, 154.0203
3000.000000, 83.741, 154.7208
3040.000000, 83.734, 155.3111
3070.000000, 83.729, 155.7650
3110.000000, 83.726, 156.3727
3150.000000, 83.726, 156.9828
3200.000000, 83.732, 157.7466
3250.000000, 83.744, 158.4946
3300.000000, 83.758, 159.2084
3350.000000, 83.775, 159.8920
3400.000000, 83.796, 160.5538
3450.000000, 83.821, 161.1798
3500.000000, 83.850, 161.7752
3550.000000, 83.884, 162.3200
3600.000000, 83.921, 162.8131
3650.000000, 83.959, 163.2498
3700.000000, 83.999, 163.6093
3750.000000, 84.040, 163.8944
3820.000000, 84.095, 164.1661
3870.000000, 84.129, 164.2588
3950.000000, 84.169, 164.2495
4000.000000, 84.185, 164.1567
4060.000000, 84.191, 163.9809
4120.000000, 84.184, 163.7300
4180.000000, 84.160, 163.4243
4250.000000, 84.110, 163.0295
4310.000000, 84.052, 162.6736
4370.000000, 83.982, 162.3208
4440.000000, 83.887, 161.9099
4500.000000, 83.797, 161.5398
4550.000000, 83.714, 161.2040
4620.000000, 83.586, 160.6721
4680.000000, 83.459, 160.1412
4750.000000, 83.273, 159.4249
4820.000000, 83.033, 158.6499
4870.000000, 82.822, 158.1584
4940.000000, 82.470, 157.7336
5000.000000, 82.128, 157.7359
5080.000000, 81.643, 158.3556
5150.000000, 81.226, 159.4933
5220.000000, 80.842, 161.1115
5300.000000, 80.459, 163.3916
5380.000000, 80.141, 165.9887
5450.000000, 79.916, 168.4218
5520.000000, 79.742, 170.9354
5600.000000, 79.600, 173.8593
5700.000000, 79.500, 177.5497
5800.000000, 79.485, -178.7315
5900.000000, 79.559, -175.0889
6000.000000, 79.723, -171.5702
6080.000000, 79.922, -168.9018
6150.000000, 80.144, -166.7532
6220.000000, 80.413, -164.8286
6300.000000, 80.776, -162.9776
6400.000000, 81.298, -161.3621
6500.000000, 81.865, -160.7266
6600.000000, 82.418, -161.2069
6700.000000, 82.877, -162.7056
6800.000000, 83.188, -164.6810
6900.000000, 83.369, -166.3555
7000.000000, 83.543, -167.3074
7100.000000, 83.854, -167.9640
7200.000000, 84.333, -169.5449
7300.000000, 84.843, -173.1078
7400.000000, 85.159, -178.6816
7500.000000, 85.121, 174.7244
7620.000000, 84.579, 167.3418
7750.000000, 83.571, 161.8219
7880.000000, 82.411, 159.3866
8000.000000, 81.393, 159.3820
8120.000000, 80.498, 160.8531
8250.000000, 79.687, 163.5280
8380.000000, 79.045, 166.8874
8500.000000, 78.588, 170.3225
8620.000000, 78.245, 173.9247
8750.000000, 77.993, 177.8713
8850.000000, 77.878, -179.1436
9000.000000, 77.814, -174.8388
9120.000000, 77.851, -171.6265
9250.000000, 77.970, -168.4717
9380.000000, 78.166, -165.7185
9500.000000, 78.408, -163.6148
9620.000000, 78.697, -162.0744
9750.000000, 79.032, -161.2327
9880.000000, 79.334, -161.2964
10000.000000, 79.542, -161.9682
10150.000000, 79.681, -163.2713
10300.000000, 79.689, -164.8156
10440.000000, 79.573, -166.2383
10600.000000, 79.295, -167.4881
10750.000000, 78.923, -167.9814
10900.000000, 78.494, -167.6145
11060.000000, 78.027, -166.2482
11200.000000, 77.652, -164.3183
11380.000000, 77.255, -160.9938
11500.000000, 77.064, -158.3481
11720.000000, 76.918, -153.1639
11800.000000, 76.924, -151.3353
12060.000000, 77.111, -145.8728
12200.000000, 77.313, -143.3572
12410.000000, 77.721, -140.4241
12500.000000, 77.922, -139.5819
12650.000000, 78.266, -138.8400
12800.000000, 78.581, -138.9319
13150.000000, 78.934, -141.0357
13200.000000, 78.934, -141.3149
13400.000000, 78.890, -141.7333
13600.000000, 78.928, -141.3819
13800.000000, 79.093, -141.4575
14000.000000, 79.255, -142.4996
14300.000000, 79.315, -144.5887
14500.000000, 79.301, -145.4860
14750.000000, 79.372, -145.9155
15000.000000, 79.666, -146.1128
15250.000000, 80.277, -147.0514
15500.000000, 81.240, -150.0149
15750.000000, 82.499, -156.7772
16000.000000, 83.677, -169.5322
16250.000000, 83.978, 172.2997
16500.000000, 82.982, 154.0931
16750.000000, 81.094, 140.6526
17000.000000, 78.966, 132.7933
17250.000000, 77.029, 129.0055
17500.000000, 75.432, 127.4149
17750.000000, 74.181, 126.6674
18000.000000, 73.218, 125.7888
18250.000000, 72.460, 124.1359
18500.000000, 71.834, 121.3876
18750.000000, 71.297, 117.2914
19000.000000, 70.823, 111.5363
19250.000000, 70.388, 103.7245
19500.000000, 69.962, 93.3221
19750.000000, 69.530, 80.7558
