* Measurement data measured by REW V5.40 beta 102
* Source: Input device not selected, no input selected, L, volume: no control
* Format: 256k Log Swept Sine, 1 sweep at -11.0 dBFS with no timing reference
* Dated: Feb 1, 2026 8:58:19 AM
* REW Settings:
*  C-weighting compensation: Off
*  Target level: 75.0 dB
* Note: ; 
* Measurement: YU9 Que (BGVP Foam) L
* Smoothing: 1/24 octave
* Frequency Step: 1/48 octave
* Start Frequency: 20.300 Hz
*
* Freq(Hz), SPL(dB), Phase(degrees)
20.299999, 84.745, -163.4278
20.600000, 84.761, -163.9926
20.900000, 84.780, -164.6375
21.200001, 84.800, -165.2959
21.400000, 84.814, -165.7369
21.799999, 84.843, -166.6132
22.000000, 84.858, -167.0436
22.400000, 84.885, -167.8806
22.700001, 84.903, -168.4868
23.000000, 84.919, -169.0788
23.299999, 84.933, -169.6633
23.600000, 84.945, -170.2457
24.000000, 84.960, -171.0224
24.299999, 84.971, -171.6024
24.700001, 84.987, -172.3654
25.000000, 84.999, -172.9267
25.400000, 85.015, -173.6600
25.799999, 85.028, -174.3787
26.200001, 85.036, -175.0847
26.500000, 85.040, -175.6059
26.900000, 85.045, -176.2908
27.200001, 85.051, -176.8002
27.600000, 85.063, -177.4794
28.000000, 85.077, -178.1595
28.500000, 85.090, -178.9931
29.000000, 85.092, -179.7756
29.500000, 85.087, 179.4967
30.000000, 85.083, 178.7710
30.400000, 85.086, 178.1468
30.700001, 85.089, 177.6463
31.100000, 85.095, 176.9548
31.500000, 85.099, 176.2773
32.000000, 85.102, 175.5040
32.500000, 85.105, 174.8164
33.000000, 85.105, 174.1616
33.500000, 85.101, 173.4918
34.000000, 85.090, 172.8060
34.500000, 85.079, 172.1290
35.000000, 85.073, 171.4681
35.500000, 85.072, 170.8058
36.000000, 85.068, 170.1295
36.500000, 85.058, 169.4505
37.000000, 85.043, 168.7888
37.500000, 85.030, 168.1508
38.200001, 85.018, 167.2820
38.700001, 85.010, 166.6705
39.500000, 84.994, 165.7031
40.000000, 84.982, 165.0968
40.599998, 84.968, 164.3665
41.200001, 84.954, 163.6542
41.799999, 84.940, 162.9774
42.500000, 84.923, 162.2161
43.099998, 84.905, 161.5570
43.700001, 84.889, 160.8752
44.400002, 84.872, 160.0643
45.000000, 84.857, 159.3897
45.500000, 84.843, 158.8591
46.200001, 84.821, 158.1428
46.799999, 84.800, 157.5172
47.500000, 84.773, 156.7733
48.200001, 84.749, 156.0457
48.700001, 84.735, 155.5327
49.400002, 84.714, 154.8112
50.000000, 84.691, 154.2101
50.799999, 84.661, 153.4506
51.500000, 84.639, 152.7819
52.200001, 84.612, 152.1078
53.000000, 84.576, 151.3918
53.799999, 84.546, 150.6965
54.500000, 84.523, 150.0449
55.200001, 84.496, 149.3931
56.000000, 84.464, 148.7028
57.000000, 84.428, 147.8446
58.000000, 84.384, 146.9904
59.000000, 84.345, 146.2086
60.000000, 84.314, 145.3321
60.799999, 84.274, 144.5809
61.500000, 84.237, 143.9776
62.200001, 84.207, 143.4164
63.000000, 84.180, 142.7751
64.000000, 84.138, 142.0044
65.000000, 84.093, 141.2895
66.000000, 84.053, 140.5641
67.000000, 84.011, 139.8075
68.000000, 83.962, 139.0342
69.000000, 83.914, 138.2828
70.000000, 83.876, 137.5704
71.000000, 83.837, 136.8741
72.000000, 83.788, 136.1832
73.000000, 83.738, 135.4828
74.000000, 83.693, 134.7786
75.000000, 83.648, 134.1165
76.199997, 83.598, 133.3522
77.500000, 83.545, 132.5028
78.800003, 83.489, 131.6776
80.000000, 83.435, 130.9154
81.199997, 83.383, 130.1388
82.500000, 83.325, 129.3561
83.800003, 83.265, 128.6402
85.000000, 83.213, 127.9539
86.199997, 83.164, 127.2485
87.500000, 83.107, 126.4992
88.500000, 83.062, 125.9259
90.000000, 82.996, 125.0790
91.199997, 82.941, 124.4251
92.500000, 82.884, 123.7524
93.800003, 82.827, 123.0824
95.000000, 82.774, 122.4691
96.199997, 82.726, 121.8934
97.500000, 82.676, 121.2798
98.800003, 82.621, 120.6249
100.000000, 82.569, 120.0284
101.500000, 82.509, 119.3047
103.000000, 82.448, 118.5854
104.400002, 82.390, 117.9268
106.000000, 82.323, 117.2111
107.500000, 82.262, 116.5247
109.000000, 82.202, 115.8486
110.599998, 82.137, 115.1898
112.000000, 82.083, 114.6531
113.800003, 82.014, 113.9448
115.000000, 81.966, 113.4717
117.199997, 81.878, 112.6052
118.000000, 81.847, 112.3065
120.599998, 81.749, 111.3289
122.000000, 81.696, 110.8229
124.099998, 81.621, 110.0749
125.000000, 81.588, 109.7566
126.500000, 81.531, 109.2296
128.000000, 81.478, 108.7099
131.500000, 81.359, 107.5340
132.000000, 81.340, 107.3707
134.000000, 81.270, 106.7595
136.000000, 81.205, 106.1733
138.000000, 81.139, 105.5539
140.000000, 81.074, 104.9206
143.000000, 80.970, 104.0157
145.000000, 80.902, 103.5223
147.500000, 80.825, 102.9193
150.000000, 80.751, 102.2783
152.500000, 80.673, 101.6437
155.000000, 80.604, 101.0595
157.500000, 80.535, 100.4759
160.000000, 80.465, 99.8864
162.500000, 80.399, 99.3445
165.000000, 80.330, 98.8109
167.500000, 80.255, 98.2625
170.000000, 80.187, 97.7323
172.500000, 80.129, 97.2366
175.000000, 80.073, 96.7765
177.500000, 80.012, 96.3667
180.000000, 79.950, 95.9093
182.500000, 79.894, 95.4713
185.000000, 79.840, 95.0757
187.500000, 79.785, 94.6851
190.000000, 79.732, 94.2939
192.500000, 79.682, 93.9199
195.000000, 79.634, 93.5358
197.500000, 79.585, 93.1632
200.000000, 79.537, 92.8190
203.000000, 79.482, 92.4510
206.000000, 79.432, 92.1266
209.000000, 79.381, 91.7769
212.000000, 79.330, 91.3894
214.000000, 79.299, 91.1339
218.000000, 79.241, 90.6629
220.000000, 79.208, 90.4441
224.000000, 79.146, 90.0332
227.000000, 79.105, 89.7395
230.000000, 79.066, 89.4683
233.000000, 79.030, 89.2017
236.000000, 78.995, 88.9259
240.000000, 78.947, 88.5681
243.000000, 78.913, 88.3508
247.000000, 78.872, 88.0819
250.000000, 78.839, 87.8689
254.000000, 78.795, 87.5695
258.000000, 78.755, 87.2835
262.000000, 78.719, 87.0341
265.000000, 78.691, 86.8589
269.000000, 78.655, 86.6304
272.000000, 78.631, 86.4583
276.000000, 78.602, 86.2542
280.000000, 78.571, 86.0527
285.000000, 78.534, 85.8091
290.000000, 78.500, 85.5649
295.000000, 78.470, 85.3326
300.000000, 78.441, 85.1632
304.000000, 78.416, 85.0330
307.000000, 78.399, 84.9279
311.000000, 78.376, 84.7636
315.000000, 78.354, 84.6114
320.000000, 78.333, 84.4677
325.000000, 78.311, 84.3485
330.000000, 78.288, 84.2342
335.000000, 78.268, 84.1238
340.000000, 78.246, 84.0145
345.000000, 78.225, 83.9181
350.000000, 78.206, 83.8261
355.000000, 78.189, 83.7457
360.000000, 78.171, 83.6973
365.000000, 78.154, 83.6451
370.000000, 78.138, 83.5877
375.000000, 78.122, 83.5522
382.000000, 78.101, 83.4998
387.000000, 78.085, 83.4732
395.000000, 78.065, 83.5008
400.000000, 78.052, 83.5101
406.000000, 78.038, 83.5053
412.000000, 78.023, 83.5135
418.000000, 78.006, 83.5319
425.000000, 77.988, 83.5651
431.000000, 77.974, 83.6163
437.000000, 77.957, 83.6983
444.000000, 77.942, 83.7989
450.000000, 77.930, 83.8800
455.000000, 77.920, 83.9755
462.000000, 77.904, 84.1249
468.000000, 77.893, 84.2399
475.000000, 77.879, 84.3647
482.000000, 77.863, 84.5046
487.000000, 77.853, 84.6266
494.000000, 77.842, 84.8248
500.000000, 77.833, 84.9820
508.000000, 77.817, 85.2018
515.000000, 77.805, 85.3984
522.000000, 77.794, 85.6008
530.000000, 77.779, 85.8622
538.000000, 77.765, 86.1604
545.000000, 77.754, 86.4116
552.000000, 77.744, 86.6708
560.000000, 77.736, 86.9876
570.000000, 77.717, 87.4232
580.000000, 77.701, 87.8666
590.000000, 77.686, 88.3026
600.000000, 77.670, 88.7762
608.000000, 77.659, 89.1860
615.000000, 77.653, 89.5574
622.000000, 77.649, 89.9398
630.000000, 77.643, 90.3796
640.000000, 77.635, 90.9499
650.000000, 77.627, 91.5221
660.000000, 77.623, 92.1024
670.000000, 77.619, 92.7279
680.000000, 77.614, 93.3629
690.000000, 77.613, 94.0080
700.000000, 77.617, 94.6601
710.000000, 77.621, 95.3415
720.000000, 77.625, 96.0589
730.000000, 77.632, 96.7779
740.000000, 77.642, 97.5027
750.000000, 77.655, 98.2135
762.000000, 77.672, 99.0905
775.000000, 77.695, 100.0952
788.000000, 77.723, 101.0790
800.000000, 77.750, 102.0074
812.000000, 77.784, 102.9590
825.000000, 77.823, 104.0141
838.000000, 77.868, 105.0654
850.000000, 77.915, 106.0199
862.000000, 77.969, 106.9595
875.000000, 78.032, 107.9771
885.000000, 78.084, 108.7783
900.000000, 78.165, 109.9675
912.000000, 78.234, 110.8851
925.000000, 78.315, 111.8789
938.000000, 78.401, 112.8639
950.000000, 78.486, 113.7470
962.000000, 78.576, 114.6109
975.000000, 78.679, 115.5227
988.000000, 78.783, 116.4264
1000.000000, 78.881, 117.2363
1015.000000, 79.005, 118.1635
1030.000000, 79.135, 119.0377
1044.000000, 79.259, 119.8265
1060.000000, 79.404, 120.6717
1075.000000, 79.539, 121.3888
1090.000000, 79.672, 122.0515
1106.000000, 79.814, 122.7226
1120.000000, 79.938, 123.2757
1138.000000, 80.094, 123.9205
1150.000000, 80.194, 124.3209
1172.000000, 80.373, 124.9850
1180.000000, 80.437, 125.2048
1206.000000, 80.637, 125.8652
1220.000000, 80.740, 126.1864
1241.000000, 80.885, 126.6355
1250.000000, 80.944, 126.8226
1265.000000, 81.039, 127.1165
1280.000000, 81.130, 127.3917
1315.000000, 81.323, 128.0038
1320.000000, 81.349, 128.0846
1340.000000, 81.452, 128.4119
1360.000000, 81.549, 128.7516
1380.000000, 81.639, 129.0831
1400.000000, 81.721, 129.4050
1430.000000, 81.839, 129.8925
1450.000000, 81.913, 130.2281
1475.000000, 82.000, 130.6454
1500.000000, 82.082, 131.0642
1525.000000, 82.159, 131.5156
1550.000000, 82.232, 131.9793
1575.000000, 82.302, 132.4425
1600.000000, 82.370, 132.9074
1625.000000, 82.436, 133.3836
1650.000000, 82.498, 133.8683
1675.000000, 82.559, 134.3558
1700.000000, 82.619, 134.8399
1725.000000, 82.677, 135.3219
1750.000000, 82.735, 135.7968
1775.000000, 82.792, 136.2672
1800.000000, 82.848, 136.7419
1825.000000, 82.903, 137.2063
1850.000000, 82.955, 137.6670
1875.000000, 83.005, 138.1314
1900.000000, 83.055, 138.5829
1925.000000, 83.105, 139.0285
1950.000000, 83.155, 139.4778
1975.000000, 83.203, 139.9123
2000.000000, 83.250, 140.3310
2030.000000, 83.305, 140.8276
2060.000000, 83.358, 141.3070
2090.000000, 83.408, 141.7679
2120.000000, 83.457, 142.2284
2140.000000, 83.488, 142.5249
2180.000000, 83.547, 143.0834
2200.000000, 83.576, 143.3538
2240.000000, 83.628, 143.8896
2270.000000, 83.664, 144.2773
2300.000000, 83.696, 144.6545
2330.000000, 83.728, 145.0251
2360.000000, 83.756, 145.3899
2400.000000, 83.789, 145.8653
2430.000000, 83.811, 146.2071
2470.000000, 83.834, 146.6441
2500.000000, 83.848, 146.9741
2540.000000, 83.863, 147.4212
2580.000000, 83.874, 147.8731
2620.000000, 83.882, 148.3247
2650.000000, 83.885, 148.6589
2690.000000, 83.885, 149.1055
2720.000000, 83.882, 149.4471
2760.000000, 83.875, 149.9133
2800.000000, 83.866, 150.3917
2850.000000, 83.852, 151.0109
2900.000000, 83.837, 151.6493
2950.000000, 83.820, 152.3163
3000.000000, 83.804, 153.0032
3040.000000, 83.791, 153.5583
3070.000000, 83.784, 153.9818
3110.000000, 83.776, 154.5566
3150.000000, 83.770, 155.1330
3200.000000, 83.766, 155.8519
3250.000000, 83.766, 156.5622
3300.000000, 83.771, 157.2599
3350.000000, 83.782, 157.9324
3400.000000, 83.798, 158.5796
3450.000000, 83.819, 159.1844
3500.000000, 83.842, 159.7453
3550.000000, 83.869, 160.2557
3600.000000, 83.900, 160.7051
3650.000000, 83.932, 161.0980
3700.000000, 83.968, 161.4117
3750.000000, 84.003, 161.6431
3820.000000, 84.048, 161.8342
3870.000000, 84.076, 161.8771
3950.000000, 84.109, 161.7718
4000.000000, 84.118, 161.6018
4060.000000, 84.117, 161.3184
4120.000000, 84.099, 160.9492
4180.000000, 84.061, 160.5201
4250.000000, 83.992, 159.9759
4310.000000, 83.914, 159.5009
4370.000000, 83.818, 159.0355
4440.000000, 83.687, 158.5240
4500.000000, 83.564, 158.1100
4550.000000, 83.456, 157.7624
4620.000000, 83.294, 157.2443
4680.000000, 83.141, 156.7486
4750.000000, 82.933, 156.1020
4820.000000, 82.682, 155.4175
4870.000000, 82.468, 154.9721
4940.000000, 82.114, 154.5346
5000.000000, 81.770, 154.4568
5080.000000, 81.281, 154.9225
5150.000000, 80.850, 155.8859
5220.000000, 80.442, 157.3195
5300.000000, 80.025, 159.4090
5380.000000, 79.669, 161.8260
5450.000000, 79.408, 164.1163
5520.000000, 79.192, 166.5139
5600.000000, 78.999, 169.3224
5700.000000, 78.838, 172.8788
5800.000000, 78.759, 176.4390
5900.000000, 78.761, 179.9325
6000.000000, 78.840, -176.7328
6080.000000, 78.959, -174.2320
6150.000000, 79.101, -172.2166
6220.000000, 79.279, -170.3932
6300.000000, 79.523, -168.5936
6400.000000, 79.875, -166.9122
6500.000000, 80.241, -165.9835
6600.000000, 80.569, -165.8242
6700.000000, 80.808, -166.1746
6800.000000, 80.934, -166.4890
6900.000000, 80.997, -166.1286
7000.000000, 81.124, -164.8599
7100.000000, 81.445, -163.2208
7200.000000, 81.991, -162.3205
7300.000000, 82.669, -163.1643
7400.000000, 83.309, -166.1253
7500.000000, 83.751, -170.8576
7620.000000, 83.885, -177.7293
7750.000000, 83.529, 175.1978
7880.000000, 82.804, 170.0262
8000.000000, 81.996, 167.3414
8120.000000, 81.180, 166.4095
8250.000000, 80.366, 166.9259
8380.000000, 79.676, 168.5530
8500.000000, 79.155, 170.6971
8620.000000, 78.743, 173.2281
8750.000000, 78.414, 176.1898
8850.000000, 78.239, 178.4993
9000.000000, 78.090, -178.1205
9120.000000, 78.061, -175.5723
9250.000000, 78.111, -173.1034
9380.000000, 78.231, -171.0768
9500.000000, 78.387, -169.6834
9620.000000, 78.571, -168.8130
9750.000000, 78.768, -168.5791
9880.000000, 78.912, -169.0224
10000.000000, 78.975, -169.7822
10150.000000, 78.958, -170.9502
10300.000000, 78.835, -172.2359
10440.000000, 78.617, -173.3953
10600.000000, 78.248, -174.3180
10750.000000, 77.816, -174.4756
10900.000000, 77.349, -173.8452
11060.000000, 76.860, -172.3308
11200.000000, 76.469, -170.3820
11380.000000, 76.046, -167.2038
11500.000000, 75.826, -164.7647
11720.000000, 75.596, -159.9624
11800.000000, 75.569, -158.2630
12060.000000, 75.629, -153.3156
12200.000000, 75.741, -151.1106
12410.000000, 75.985, -148.6229
12500.000000, 76.104, -147.9364
12650.000000, 76.293, -147.3589
12800.000000, 76.432, -147.4370
13150.000000, 76.387, -148.5187
13200.000000, 76.342, -148.5369
13400.000000, 76.170, -147.9223
13600.000000, 76.129, -146.8855
13800.000000, 76.209, -146.6577
14000.000000, 76.249, -147.5350
14300.000000, 76.063, -149.4616
14500.000000, 75.824, -150.2793
14750.000000, 75.510, -150.4583
15000.000000, 75.262, -149.7616
15250.000000, 75.159, -148.1994
15500.000000, 75.369, -145.7222
15750.000000, 76.246, -143.3170
16000.000000, 77.853, -145.5443
16250.000000, 79.336, -155.7579
16500.000000, 79.961, -170.9316
16750.000000, 79.639, 173.1356
17000.000000, 78.571, 159.2092
17250.000000, 77.080, 148.6168
17500.000000, 75.479, 141.2917
17750.000000, 73.981, 136.3117
18000.000000, 72.681, 132.5352
18250.000000, 71.577, 128.9686
18500.000000, 70.618, 124.9681
18750.000000, 69.758, 120.0666
19000.000000, 68.967, 113.8337
19250.000000, 68.218, 105.7702
19500.000000, 67.478, 95.3329
19750.000000, 66.739, 82.8481
