* Measurement data measured by REW V5.40 beta 102
* Source: Input device not selected, no input selected, L, volume: no control
* Format: 256k Log Swept Sine, 1 sweep at -11.0 dBFS with no timing reference
* Dated: Jan 29, 2026 10:35:24 AM
* REW Settings:
*  C-weighting compensation: Off
*  Target level: 75.0 dB
* Note: ; 
* Measurement: YU9 Que (Stock Clear M) L
* Smoothing: 1/24 octave
* Frequency Step: 1/48 octave
* Start Frequency: 20.300 Hz
*
* Freq(Hz), SPL(dB), Phase(degrees)
20.299999, 70.603, -162.4044
20.600000, 70.615, -162.9858
20.900000, 70.636, -163.6400
21.200001, 70.665, -164.3035
21.400000, 70.687, -164.7463
21.799999, 70.732, -165.6175
22.000000, 70.752, -166.0373
22.400000, 70.784, -166.8350
22.700001, 70.800, -167.4052
23.000000, 70.813, -167.9716
23.299999, 70.824, -168.5558
23.600000, 70.837, -169.1710
24.000000, 70.858, -170.0336
24.299999, 70.875, -170.6880
24.700001, 70.899, -171.5211
25.000000, 70.914, -172.0899
25.400000, 70.927, -172.7636
25.799999, 70.931, -173.3687
26.200001, 70.927, -173.9625
26.500000, 70.923, -174.4351
26.900000, 70.920, -175.1269
27.200001, 70.925, -175.6890
27.600000, 70.944, -176.4677
28.000000, 70.974, -177.2366
28.500000, 71.016, -178.1321
29.000000, 71.038, -178.9353
29.500000, 71.027, -179.6543
30.000000, 70.993, 179.6817
30.400000, 70.971, 179.1442
30.700001, 70.967, 178.7050
31.100000, 70.981, 178.0474
31.500000, 71.007, 177.3265
32.000000, 71.037, 176.4514
32.500000, 71.049, 175.7465
33.000000, 71.050, 175.2128
33.500000, 71.051, 174.6808
34.000000, 71.046, 173.9979
34.500000, 71.027, 173.1992
35.000000, 71.001, 172.4406
35.500000, 70.987, 171.7982
36.000000, 70.989, 171.1968
36.500000, 70.991, 170.5427
37.000000, 70.979, 169.8558
37.500000, 70.957, 169.2170
38.200001, 70.947, 168.3957
38.700001, 70.956, 167.7602
39.500000, 70.955, 166.6593
40.000000, 70.938, 166.0427
40.599998, 70.920, 165.3873
41.200001, 70.909, 164.6810
41.799999, 70.894, 163.8412
42.500000, 70.861, 162.7998
43.099998, 70.832, 161.9934
43.700001, 70.815, 161.3370
44.400002, 70.808, 160.7567
45.000000, 70.803, 160.3260
45.500000, 70.792, 159.9131
46.200001, 70.757, 159.1761
46.799999, 70.718, 158.4630
47.500000, 70.683, 157.6767
48.200001, 70.665, 156.9844
48.700001, 70.653, 156.5322
49.400002, 70.630, 155.9393
50.000000, 70.616, 155.4194
50.799999, 70.613, 154.5931
51.500000, 70.598, 153.7961
52.200001, 70.557, 153.1132
53.000000, 70.506, 152.4871
53.799999, 70.469, 151.8282
54.500000, 70.442, 151.2248
55.200001, 70.419, 150.6683
56.000000, 70.396, 150.0046
57.000000, 70.365, 149.0638
58.000000, 70.360, 148.1560
59.000000, 70.356, 147.1887
60.000000, 70.290, 146.3672
60.799999, 70.233, 145.8385
61.500000, 70.199, 145.2865
62.200001, 70.170, 144.6505
63.000000, 70.142, 143.9216
64.000000, 70.117, 143.0632
65.000000, 70.090, 142.3876
66.000000, 70.051, 141.7541
67.000000, 69.976, 140.9679
68.000000, 69.904, 140.1464
69.000000, 69.868, 139.4040
70.000000, 69.839, 138.7906
71.000000, 69.798, 138.1387
72.000000, 69.751, 137.3249
73.000000, 69.700, 136.4657
74.000000, 69.645, 135.8459
75.000000, 69.611, 135.3887
76.199997, 69.569, 134.6296
77.500000, 69.496, 133.6843
78.800003, 69.442, 132.8065
80.000000, 69.404, 132.1656
81.199997, 69.342, 131.5829
82.500000, 69.271, 130.8856
83.800003, 69.218, 129.9307
85.000000, 69.169, 129.0593
86.199997, 69.126, 128.3860
87.500000, 69.090, 127.6870
88.500000, 69.059, 127.0898
90.000000, 68.988, 126.2271
91.199997, 68.925, 125.6071
92.500000, 68.863, 125.0298
93.800003, 68.801, 124.4323
95.000000, 68.752, 123.8062
96.199997, 68.708, 123.1694
97.500000, 68.659, 122.4475
98.800003, 68.606, 121.6939
100.000000, 68.549, 121.0895
101.500000, 68.479, 120.3825
103.000000, 68.414, 119.6455
104.400002, 68.357, 119.0214
106.000000, 68.301, 118.2997
107.500000, 68.235, 117.5563
109.000000, 68.171, 116.9213
110.599998, 68.121, 116.3027
112.000000, 68.067, 115.7358
113.800003, 67.986, 115.0130
115.000000, 67.935, 114.5500
117.199997, 67.832, 113.5717
118.000000, 67.801, 113.1833
120.599998, 67.721, 112.2912
122.000000, 67.668, 112.0107
124.099998, 67.565, 111.3687
125.000000, 67.510, 110.9625
126.500000, 67.433, 110.3188
128.000000, 67.385, 109.6667
131.500000, 67.226, 108.3730
132.000000, 67.203, 108.2271
134.000000, 67.117, 107.6835
136.000000, 67.025, 107.2358
138.000000, 66.927, 106.7340
140.000000, 66.830, 106.2055
143.000000, 66.703, 105.4843
145.000000, 66.630, 105.0843
147.500000, 66.528, 104.8614
150.000000, 66.461, 104.6571
152.500000, 66.396, 104.4808
155.000000, 66.359, 104.2325
157.500000, 66.331, 104.1077
160.000000, 66.338, 103.7572
162.500000, 66.335, 103.1614
165.000000, 66.337, 102.4942
167.500000, 66.341, 101.7598
170.000000, 66.302, 101.0730
172.500000, 66.246, 100.4152
175.000000, 66.180, 99.7842
177.500000, 66.126, 99.1250
180.000000, 66.094, 98.5518
182.500000, 66.054, 98.0658
185.000000, 66.006, 97.6626
187.500000, 65.952, 97.1612
190.000000, 65.898, 96.6800
192.500000, 65.845, 96.2060
195.000000, 65.805, 95.7043
197.500000, 65.773, 95.2798
200.000000, 65.724, 95.0476
203.000000, 65.650, 94.6793
206.000000, 65.580, 94.1296
209.000000, 65.512, 93.6503
212.000000, 65.467, 93.1774
214.000000, 65.448, 92.8790
218.000000, 65.395, 92.4276
220.000000, 65.365, 92.2780
224.000000, 65.309, 91.8383
227.000000, 65.261, 91.4911
230.000000, 65.218, 91.1380
233.000000, 65.184, 90.8082
236.000000, 65.148, 90.5374
240.000000, 65.103, 90.1459
243.000000, 65.068, 89.7542
247.000000, 65.026, 89.3339
250.000000, 64.997, 89.1015
254.000000, 64.949, 88.7731
258.000000, 64.905, 88.5974
262.000000, 64.863, 88.5285
265.000000, 64.833, 88.3154
269.000000, 64.794, 87.9481
272.000000, 64.767, 87.7085
276.000000, 64.735, 87.5151
280.000000, 64.700, 87.2737
285.000000, 64.655, 86.9031
290.000000, 64.628, 86.6323
295.000000, 64.590, 86.4896
300.000000, 64.539, 86.2052
304.000000, 64.508, 86.0253
307.000000, 64.494, 85.9226
311.000000, 64.477, 85.6967
315.000000, 64.459, 85.4669
320.000000, 64.436, 85.3292
325.000000, 64.403, 85.2708
330.000000, 64.370, 85.0909
335.000000, 64.348, 84.8386
340.000000, 64.310, 84.7615
345.000000, 64.271, 84.7605
350.000000, 64.235, 84.6611
355.000000, 64.202, 84.5078
360.000000, 64.174, 84.4695
365.000000, 64.143, 84.5341
370.000000, 64.112, 84.6520
375.000000, 64.079, 84.7975
382.000000, 64.042, 84.9648
387.000000, 64.031, 85.1140
395.000000, 64.047, 85.2040
400.000000, 64.046, 85.2908
406.000000, 64.054, 85.4253
412.000000, 64.086, 85.4100
418.000000, 64.110, 85.3732
425.000000, 64.108, 85.3436
431.000000, 64.110, 85.2513
437.000000, 64.110, 85.0564
444.000000, 64.100, 84.9480
450.000000, 64.085, 85.0616
455.000000, 64.070, 85.1857
462.000000, 64.055, 85.1989
468.000000, 64.044, 85.0944
475.000000, 64.030, 85.1026
482.000000, 64.017, 85.3157
487.000000, 64.006, 85.4505
494.000000, 63.982, 85.5701
500.000000, 63.960, 85.7588
508.000000, 63.944, 86.0247
515.000000, 63.934, 86.1732
522.000000, 63.920, 86.3683
530.000000, 63.895, 86.5787
538.000000, 63.868, 86.8836
545.000000, 63.854, 87.1143
552.000000, 63.833, 87.2405
560.000000, 63.800, 87.4740
570.000000, 63.774, 87.9125
580.000000, 63.755, 88.4795
590.000000, 63.740, 88.8559
600.000000, 63.730, 89.3176
608.000000, 63.713, 89.8194
615.000000, 63.702, 90.2572
622.000000, 63.702, 90.5886
630.000000, 63.692, 90.9451
640.000000, 63.673, 91.4897
650.000000, 63.672, 92.0646
660.000000, 63.683, 92.6763
670.000000, 63.685, 93.3678
680.000000, 63.667, 93.9985
690.000000, 63.655, 94.6178
700.000000, 63.658, 95.3012
710.000000, 63.657, 96.0190
720.000000, 63.659, 96.7216
730.000000, 63.664, 97.4147
740.000000, 63.675, 98.1331
750.000000, 63.692, 98.8921
762.000000, 63.699, 99.8703
775.000000, 63.705, 100.8294
788.000000, 63.740, 101.8092
800.000000, 63.789, 102.7129
812.000000, 63.825, 103.6065
825.000000, 63.852, 104.7741
838.000000, 63.893, 105.9664
850.000000, 63.935, 106.8610
862.000000, 63.990, 107.7602
875.000000, 64.052, 108.8025
885.000000, 64.095, 109.5904
900.000000, 64.174, 110.8029
912.000000, 64.251, 111.8745
925.000000, 64.343, 112.9262
938.000000, 64.434, 113.9146
950.000000, 64.512, 114.8806
962.000000, 64.597, 115.8243
975.000000, 64.705, 116.7038
988.000000, 64.820, 117.5814
1000.000000, 64.920, 118.4799
1015.000000, 65.047, 119.4503
1030.000000, 65.181, 120.3080
1044.000000, 65.308, 121.0437
1060.000000, 65.461, 121.8161
1075.000000, 65.602, 122.6138
1090.000000, 65.744, 123.4400
1106.000000, 65.901, 124.0800
1120.000000, 66.034, 124.5482
1138.000000, 66.198, 125.2104
1150.000000, 66.304, 125.6516
1172.000000, 66.497, 126.3276
1180.000000, 66.566, 126.5440
1206.000000, 66.760, 127.2191
1220.000000, 66.861, 127.5532
1241.000000, 67.022, 127.9924
1250.000000, 67.089, 128.1643
1265.000000, 67.190, 128.4526
1280.000000, 67.278, 128.7700
1315.000000, 67.488, 129.3146
1320.000000, 67.519, 129.3851
1340.000000, 67.639, 129.6897
1360.000000, 67.743, 129.9765
1380.000000, 67.830, 130.2823
1400.000000, 67.918, 130.5904
1430.000000, 68.039, 131.0527
1450.000000, 68.107, 131.3592
1475.000000, 68.198, 131.7462
1500.000000, 68.295, 132.1963
1525.000000, 68.384, 132.6713
1550.000000, 68.462, 133.1154
1575.000000, 68.533, 133.5464
1600.000000, 68.612, 133.9823
1625.000000, 68.690, 134.4644
1650.000000, 68.753, 134.9426
1675.000000, 68.815, 135.4052
1700.000000, 68.887, 135.8675
1725.000000, 68.957, 136.3549
1750.000000, 69.018, 136.8568
1775.000000, 69.078, 137.3066
1800.000000, 69.135, 137.7296
1825.000000, 69.191, 138.1646
1850.000000, 69.248, 138.6032
1875.000000, 69.306, 139.0575
1900.000000, 69.369, 139.5034
1925.000000, 69.424, 139.9728
1950.000000, 69.478, 140.4163
1975.000000, 69.540, 140.8098
2000.000000, 69.597, 141.2305
2030.000000, 69.653, 141.7390
2060.000000, 69.708, 142.2167
2090.000000, 69.765, 142.6528
2120.000000, 69.823, 143.0749
2140.000000, 69.861, 143.3518
2180.000000, 69.929, 143.9005
2200.000000, 69.961, 144.1464
2240.000000, 70.025, 144.5984
2270.000000, 70.069, 144.9402
2300.000000, 70.108, 145.3006
2330.000000, 70.145, 145.6320
2360.000000, 70.179, 145.9590
2400.000000, 70.215, 146.4323
2430.000000, 70.235, 146.7700
2470.000000, 70.265, 147.1616
2500.000000, 70.283, 147.4592
2540.000000, 70.305, 147.8738
2580.000000, 70.324, 148.2779
2620.000000, 70.334, 148.6384
2650.000000, 70.341, 148.9375
2690.000000, 70.343, 149.3943
2720.000000, 70.340, 149.7482
2760.000000, 70.335, 150.1946
2800.000000, 70.327, 150.6393
2850.000000, 70.313, 151.2473
2900.000000, 70.307, 151.8916
2950.000000, 70.296, 152.5472
3000.000000, 70.283, 153.2541
3040.000000, 70.282, 153.8429
3070.000000, 70.280, 154.3168
3110.000000, 70.279, 154.9225
3150.000000, 70.282, 155.4766
3200.000000, 70.287, 156.1425
3250.000000, 70.300, 156.8169
3300.000000, 70.311, 157.4732
3350.000000, 70.325, 158.1147
3400.000000, 70.352, 158.7239
3450.000000, 70.385, 159.3303
3500.000000, 70.414, 159.8722
3550.000000, 70.447, 160.3691
3600.000000, 70.485, 160.8135
3650.000000, 70.532, 161.1814
3700.000000, 70.582, 161.4924
3750.000000, 70.622, 161.7209
3820.000000, 70.677, 161.8365
3870.000000, 70.720, 161.8247
3950.000000, 70.775, 161.6776
4000.000000, 70.794, 161.4631
4060.000000, 70.801, 161.1530
4120.000000, 70.797, 160.7100
4180.000000, 70.773, 160.1516
4250.000000, 70.719, 159.4828
4310.000000, 70.654, 158.9026
4370.000000, 70.568, 158.2892
4440.000000, 70.442, 157.5909
4500.000000, 70.314, 157.0089
4550.000000, 70.197, 156.5300
4620.000000, 70.019, 155.8727
4680.000000, 69.850, 155.3035
4750.000000, 69.623, 154.5561
4820.000000, 69.353, 153.7528
4870.000000, 69.120, 153.2407
4940.000000, 68.738, 152.7723
5000.000000, 68.371, 152.7220
5080.000000, 67.851, 153.1899
5150.000000, 67.396, 154.1758
5220.000000, 66.962, 155.7396
5300.000000, 66.517, 158.0546
5380.000000, 66.141, 160.7289
5450.000000, 65.859, 163.2499
5520.000000, 65.636, 165.8589
5600.000000, 65.445, 168.8900
5700.000000, 65.275, 172.6874
5800.000000, 65.203, 176.5961
5900.000000, 65.219, -179.5729
6000.000000, 65.300, -175.9380
6080.000000, 65.427, -173.2054
6150.000000, 65.594, -170.9529
6220.000000, 65.803, -168.9043
6300.000000, 66.079, -166.9199
6400.000000, 66.471, -165.0925
6500.000000, 66.878, -164.1638
6600.000000, 67.241, -164.1053
6700.000000, 67.476, -164.5751
6800.000000, 67.553, -164.9239
6900.000000, 67.542, -164.2996
7000.000000, 67.596, -162.2737
7100.000000, 67.899, -159.5292
7200.000000, 68.513, -157.3834
7300.000000, 69.331, -157.1070
7400.000000, 70.181, -159.3170
7500.000000, 70.863, -163.8794
7620.000000, 71.256, -171.4395
7750.000000, 71.068, -179.9023
7880.000000, 70.370, 173.5052
8000.000000, 69.495, 169.8794
8120.000000, 68.588, 168.4056
8250.000000, 67.683, 168.7653
8380.000000, 66.907, 170.5009
8500.000000, 66.325, 172.9114
8620.000000, 65.863, 175.8056
8750.000000, 65.499, 179.3142
8850.000000, 65.316, -177.9337
9000.000000, 65.163, -173.7429
9120.000000, 65.142, -170.3910
9250.000000, 65.226, -166.8855
9380.000000, 65.417, -163.6307
9500.000000, 65.681, -160.9663
9620.000000, 66.049, -158.8432
9750.000000, 66.558, -157.4926
9880.000000, 67.111, -157.3505
10000.000000, 67.584, -158.3988
10150.000000, 68.040, -161.2181
10300.000000, 68.266, -165.1738
10440.000000, 68.229, -169.1765
10600.000000, 67.903, -173.2849
10750.000000, 67.393, -176.0468
10900.000000, 66.770, -177.4959
11060.000000, 66.076, -177.6276
11200.000000, 65.504, -176.6863
11380.000000, 64.863, -174.2906
11500.000000, 64.519, -172.1534
11720.000000, 64.101, -167.7375
11800.000000, 64.017, -166.1317
12060.000000, 63.955, -161.6413
12200.000000, 64.008, -159.8534
12410.000000, 64.139, -158.1880
12500.000000, 64.197, -157.9013
12650.000000, 64.263, -157.9961
12800.000000, 64.236, -158.6518
13150.000000, 63.680, -159.9892
13200.000000, 63.567, -159.8670
13400.000000, 63.176, -158.3697
13600.000000, 62.975, -156.4489
13800.000000, 62.882, -155.5730
14000.000000, 62.726, -155.7574
14300.000000, 62.263, -156.1046
14500.000000, 61.869, -155.4417
14750.000000, 61.440, -153.4858
15000.000000, 61.143, -150.5286
15250.000000, 61.027, -146.7482
15500.000000, 61.234, -141.9643
15750.000000, 62.073, -136.9349
16000.000000, 63.701, -135.0938
16250.000000, 65.604, -140.0262
16500.000000, 67.144, -151.5511
16750.000000, 67.906, -167.1719
17000.000000, 67.720, 176.2845
17250.000000, 66.730, 161.9022
17500.000000, 65.345, 151.1982
17750.000000, 63.962, 143.8879
18000.000000, 62.808, 138.4302
18250.000000, 61.938, 133.0163
18500.000000, 61.252, 126.4990
18750.000000, 60.658, 118.5200
19000.000000, 60.079, 108.4946
19250.000000, 59.433, 95.7888
19500.000000, 58.597, 80.1430
19750.000000, 57.526, 62.5813
