* Measurement data measured by REW V5.40 beta 102
* Source: Input device not selected, no input selected, L, volume: no control
* Format: 256k Log Swept Sine, 1 sweep at -11.0 dBFS with no timing reference
* Dated: Feb 1, 2026 8:54:12 AM
* REW Settings:
*  C-weighting compensation: Off
*  Target level: 75.0 dB
* Note: ; 
* Measurement: YU9 Que (Final E M) L
* Smoothing: 1/24 octave
* Frequency Step: 1/48 octave
* Start Frequency: 20.300 Hz
*
* Freq(Hz), SPL(dB), Phase(degrees)
20.299999, 84.880, -163.3376
20.600000, 84.899, -163.9391
20.900000, 84.919, -164.6103
21.200001, 84.937, -165.2777
21.400000, 84.949, -165.7162
21.799999, 84.973, -166.5729
22.000000, 84.984, -166.9894
22.400000, 85.007, -167.7973
22.700001, 85.025, -168.3845
23.000000, 85.042, -168.9617
23.299999, 85.059, -169.5356
23.600000, 85.074, -170.1113
24.000000, 85.093, -170.8850
24.299999, 85.104, -171.4684
24.700001, 85.117, -172.2442
25.000000, 85.125, -172.8191
25.400000, 85.135, -173.5686
25.799999, 85.145, -174.2901
26.200001, 85.156, -174.9767
26.500000, 85.165, -175.4691
26.900000, 85.176, -176.1043
27.200001, 85.184, -176.5750
27.600000, 85.191, -177.2106
28.000000, 85.194, -177.8656
28.500000, 85.191, -178.7051
29.000000, 85.188, -179.5387
29.500000, 85.193, 179.6619
30.000000, 85.210, 178.9060
30.400000, 85.225, 178.3296
30.700001, 85.234, 177.9113
31.100000, 85.238, 177.3680
31.500000, 85.233, 176.8322
32.000000, 85.218, 176.1488
32.500000, 85.204, 175.4224
33.000000, 85.200, 174.6479
33.500000, 85.204, 173.8612
34.000000, 85.211, 173.1203
34.500000, 85.213, 172.4618
35.000000, 85.206, 171.8674
35.500000, 85.194, 171.2734
36.000000, 85.179, 170.6241
36.500000, 85.163, 169.9226
37.000000, 85.149, 169.2297
37.500000, 85.141, 168.6047
38.200001, 85.137, 167.8282
38.700001, 85.133, 167.2680
39.500000, 85.110, 166.2879
40.000000, 85.091, 165.6732
40.599998, 85.076, 164.9839
41.200001, 85.074, 164.3204
41.799999, 85.071, 163.6291
42.500000, 85.050, 162.7858
43.099998, 85.019, 162.0867
43.700001, 84.992, 161.4490
44.400002, 84.974, 160.7567
45.000000, 84.966, 160.1506
45.500000, 84.956, 159.6130
46.200001, 84.932, 158.8315
46.799999, 84.908, 158.1761
47.500000, 84.882, 157.4543
48.200001, 84.858, 156.7635
48.700001, 84.841, 156.2769
49.400002, 84.816, 155.6023
50.000000, 84.795, 155.0354
50.799999, 84.767, 154.2975
51.500000, 84.743, 153.6616
52.200001, 84.718, 153.0232
53.000000, 84.690, 152.2847
53.799999, 84.663, 151.5516
54.500000, 84.637, 150.9308
55.200001, 84.610, 150.3245
56.000000, 84.578, 149.6332
57.000000, 84.538, 148.7886
58.000000, 84.501, 147.9808
59.000000, 84.464, 147.1420
60.000000, 84.420, 146.2918
60.799999, 84.384, 145.6653
61.500000, 84.355, 145.1423
62.200001, 84.327, 144.6071
63.000000, 84.296, 143.9572
64.000000, 84.255, 143.1144
65.000000, 84.214, 142.3362
66.000000, 84.172, 141.6631
67.000000, 84.125, 141.0106
68.000000, 84.079, 140.3017
69.000000, 84.039, 139.5409
70.000000, 83.996, 138.8082
71.000000, 83.949, 138.1288
72.000000, 83.907, 137.4545
73.000000, 83.868, 136.7858
74.000000, 83.827, 136.1406
75.000000, 83.783, 135.4966
76.199997, 83.728, 134.7144
77.500000, 83.669, 133.9091
78.800003, 83.617, 133.1295
80.000000, 83.568, 132.3990
81.199997, 83.517, 131.6744
82.500000, 83.464, 130.9224
83.800003, 83.408, 130.1882
85.000000, 83.353, 129.4900
86.199997, 83.302, 128.8152
87.500000, 83.248, 128.1150
88.500000, 83.205, 127.5840
90.000000, 83.142, 126.8195
91.199997, 83.096, 126.1961
92.500000, 83.044, 125.4997
93.800003, 82.985, 124.8553
95.000000, 82.934, 124.2696
96.199997, 82.888, 123.6461
97.500000, 82.837, 123.0090
98.800003, 82.778, 122.4470
100.000000, 82.722, 121.9102
101.500000, 82.655, 121.2361
103.000000, 82.595, 120.5824
104.400002, 82.542, 119.9604
106.000000, 82.480, 119.2783
107.500000, 82.424, 118.6193
109.000000, 82.368, 117.9658
110.599998, 82.313, 117.2820
112.000000, 82.265, 116.7013
113.800003, 82.195, 116.0163
115.000000, 82.147, 115.5805
117.199997, 82.057, 114.7249
118.000000, 82.025, 114.3860
120.599998, 81.937, 113.3322
122.000000, 81.899, 112.8546
124.099998, 81.827, 112.2807
125.000000, 81.789, 112.0253
126.500000, 81.725, 111.5121
128.000000, 81.669, 110.9438
131.500000, 81.545, 109.7476
132.000000, 81.529, 109.5825
134.000000, 81.477, 109.0167
136.000000, 81.404, 108.5738
138.000000, 81.317, 107.8734
140.000000, 81.262, 107.2826
143.000000, 81.151, 106.5151
145.000000, 81.095, 105.9359
147.500000, 81.018, 105.4245
150.000000, 80.926, 104.8915
152.500000, 80.840, 104.3279
155.000000, 80.761, 103.9158
157.500000, 80.686, 103.5529
160.000000, 80.609, 103.2107
162.500000, 80.561, 102.9922
165.000000, 80.530, 102.6681
167.500000, 80.500, 102.3880
170.000000, 80.480, 102.0160
172.500000, 80.457, 101.5104
175.000000, 80.427, 100.9807
177.500000, 80.394, 100.5013
180.000000, 80.361, 100.0230
182.500000, 80.326, 99.5236
185.000000, 80.284, 99.0338
187.500000, 80.242, 98.5624
190.000000, 80.204, 98.1198
192.500000, 80.165, 97.6825
195.000000, 80.123, 97.2685
197.500000, 80.079, 96.8947
200.000000, 80.039, 96.5481
203.000000, 79.994, 96.1370
206.000000, 79.952, 95.7349
209.000000, 79.910, 95.3263
212.000000, 79.870, 94.9409
214.000000, 79.846, 94.7011
218.000000, 79.799, 94.2272
220.000000, 79.775, 94.0030
224.000000, 79.725, 93.5529
227.000000, 79.686, 93.2186
230.000000, 79.651, 92.8840
233.000000, 79.620, 92.5637
236.000000, 79.590, 92.2679
240.000000, 79.552, 91.8828
243.000000, 79.525, 91.6179
247.000000, 79.486, 91.2892
250.000000, 79.458, 91.0643
254.000000, 79.420, 90.7654
258.000000, 79.387, 90.4543
262.000000, 79.358, 90.1869
265.000000, 79.335, 89.9869
269.000000, 79.306, 89.7292
272.000000, 79.286, 89.5208
276.000000, 79.263, 89.2488
280.000000, 79.239, 89.0221
285.000000, 79.208, 88.7373
290.000000, 79.177, 88.4465
295.000000, 79.146, 88.1601
300.000000, 79.122, 87.9041
304.000000, 79.105, 87.7195
307.000000, 79.091, 87.5910
311.000000, 79.071, 87.4388
315.000000, 79.047, 87.2793
320.000000, 79.020, 87.0735
325.000000, 78.996, 86.8947
330.000000, 78.975, 86.7479
335.000000, 78.954, 86.6023
340.000000, 78.931, 86.4687
345.000000, 78.908, 86.3477
350.000000, 78.884, 86.2218
355.000000, 78.861, 86.1240
360.000000, 78.837, 86.0465
365.000000, 78.815, 86.0005
370.000000, 78.791, 85.9898
375.000000, 78.765, 86.0023
382.000000, 78.729, 86.0692
387.000000, 78.709, 86.1704
395.000000, 78.692, 86.4110
400.000000, 78.693, 86.5881
406.000000, 78.709, 86.7421
412.000000, 78.734, 86.8092
418.000000, 78.756, 86.7945
425.000000, 78.772, 86.6801
431.000000, 78.774, 86.5733
437.000000, 78.768, 86.4829
444.000000, 78.755, 86.4224
450.000000, 78.741, 86.4233
455.000000, 78.728, 86.4332
462.000000, 78.708, 86.4635
468.000000, 78.692, 86.5192
475.000000, 78.674, 86.6161
482.000000, 78.657, 86.7330
487.000000, 78.645, 86.8298
494.000000, 78.626, 86.9764
500.000000, 78.610, 87.1131
508.000000, 78.592, 87.3180
515.000000, 78.576, 87.5065
522.000000, 78.560, 87.7104
530.000000, 78.542, 87.9766
538.000000, 78.524, 88.2608
545.000000, 78.511, 88.5366
552.000000, 78.496, 88.8282
560.000000, 78.479, 89.1571
570.000000, 78.464, 89.5553
580.000000, 78.444, 89.9909
590.000000, 78.427, 90.4808
600.000000, 78.414, 90.9905
608.000000, 78.404, 91.4140
615.000000, 78.392, 91.8080
622.000000, 78.381, 92.2179
630.000000, 78.375, 92.6736
640.000000, 78.370, 93.2453
650.000000, 78.365, 93.8319
660.000000, 78.359, 94.4415
670.000000, 78.354, 95.0917
680.000000, 78.350, 95.7501
690.000000, 78.347, 96.4218
700.000000, 78.344, 97.1079
710.000000, 78.345, 97.8079
720.000000, 78.350, 98.5266
730.000000, 78.359, 99.2488
740.000000, 78.369, 99.9844
750.000000, 78.380, 100.7351
762.000000, 78.396, 101.6652
775.000000, 78.417, 102.6913
788.000000, 78.443, 103.7454
800.000000, 78.471, 104.7386
812.000000, 78.505, 105.7306
825.000000, 78.545, 106.7990
838.000000, 78.592, 107.8875
850.000000, 78.644, 108.8941
862.000000, 78.698, 109.9119
875.000000, 78.761, 111.0067
885.000000, 78.812, 111.8395
900.000000, 78.894, 113.0849
912.000000, 78.966, 114.0865
925.000000, 79.053, 115.1674
938.000000, 79.144, 116.2132
950.000000, 79.232, 117.1476
962.000000, 79.324, 118.0540
975.000000, 79.428, 119.0263
988.000000, 79.539, 119.9688
1000.000000, 79.644, 120.8104
1015.000000, 79.775, 121.8156
1030.000000, 79.912, 122.7654
1044.000000, 80.045, 123.6096
1060.000000, 80.198, 124.5142
1075.000000, 80.342, 125.3092
1090.000000, 80.489, 126.0428
1106.000000, 80.643, 126.7579
1120.000000, 80.775, 127.3410
1138.000000, 80.945, 128.0306
1150.000000, 81.057, 128.4559
1172.000000, 81.256, 129.1569
1180.000000, 81.326, 129.3881
1206.000000, 81.543, 130.0764
1220.000000, 81.654, 130.4126
1241.000000, 81.814, 130.8696
1250.000000, 81.880, 131.0496
1265.000000, 81.986, 131.3362
1280.000000, 82.090, 131.6158
1315.000000, 82.311, 132.2137
1320.000000, 82.341, 132.2915
1340.000000, 82.451, 132.6037
1360.000000, 82.557, 132.9164
1380.000000, 82.658, 133.2192
1400.000000, 82.750, 133.5182
1430.000000, 82.880, 133.9787
1450.000000, 82.961, 134.2842
1475.000000, 83.056, 134.6835
1500.000000, 83.145, 135.0992
1525.000000, 83.229, 135.5206
1550.000000, 83.309, 135.9416
1575.000000, 83.386, 136.3866
1600.000000, 83.460, 136.8334
1625.000000, 83.530, 137.2752
1650.000000, 83.597, 137.7281
1675.000000, 83.663, 138.1954
1700.000000, 83.728, 138.6633
1725.000000, 83.792, 139.1406
1750.000000, 83.853, 139.6148
1775.000000, 83.915, 140.0864
1800.000000, 83.975, 140.5591
1825.000000, 84.033, 141.0294
1850.000000, 84.091, 141.4933
1875.000000, 84.147, 141.9447
1900.000000, 84.202, 142.3939
1925.000000, 84.257, 142.8475
1950.000000, 84.311, 143.2886
1975.000000, 84.363, 143.7201
2000.000000, 84.414, 144.1497
2030.000000, 84.473, 144.6461
2060.000000, 84.531, 145.1200
2090.000000, 84.586, 145.5923
2120.000000, 84.639, 146.0532
2140.000000, 84.674, 146.3492
2180.000000, 84.740, 146.9291
2200.000000, 84.772, 147.2120
2240.000000, 84.832, 147.7613
2270.000000, 84.874, 148.1563
2300.000000, 84.913, 148.5479
2330.000000, 84.949, 148.9361
2360.000000, 84.982, 149.3148
2400.000000, 85.023, 149.8049
2430.000000, 85.049, 150.1630
2470.000000, 85.079, 150.6370
2500.000000, 85.100, 150.9937
2540.000000, 85.126, 151.4684
2580.000000, 85.146, 151.9435
2620.000000, 85.161, 152.4287
2650.000000, 85.170, 152.7917
2690.000000, 85.180, 153.2849
2720.000000, 85.186, 153.6691
2760.000000, 85.190, 154.1870
2800.000000, 85.193, 154.7175
2850.000000, 85.195, 155.3979
2900.000000, 85.196, 156.1159
2950.000000, 85.198, 156.8652
3000.000000, 85.203, 157.6462
3040.000000, 85.211, 158.3006
3070.000000, 85.221, 158.8061
3110.000000, 85.241, 159.4984
3150.000000, 85.268, 160.1900
3200.000000, 85.317, 161.0251
3250.000000, 85.381, 161.7691
3300.000000, 85.454, 162.3947
3350.000000, 85.530, 162.9088
3400.000000, 85.603, 163.3290
3450.000000, 85.673, 163.6778
3500.000000, 85.742, 163.9536
3550.000000, 85.812, 164.1547
3600.000000, 85.880, 164.2701
3650.000000, 85.944, 164.2919
3700.000000, 86.002, 164.2231
3750.000000, 86.049, 164.0709
3820.000000, 86.098, 163.7684
3870.000000, 86.124, 163.5201
3950.000000, 86.158, 163.0657
4000.000000, 86.178, 162.7015
4060.000000, 86.199, 162.1505
4120.000000, 86.207, 161.4422
4180.000000, 86.196, 160.5956
4250.000000, 86.155, 159.4651
4310.000000, 86.091, 158.4000
4370.000000, 85.997, 157.2811
4440.000000, 85.853, 155.9323
4500.000000, 85.699, 154.7430
4550.000000, 85.547, 153.7169
4620.000000, 85.285, 152.2506
4680.000000, 85.007, 151.0390
4750.000000, 84.611, 149.7986
4820.000000, 84.137, 148.9473
4870.000000, 83.761, 148.7035
4940.000000, 83.210, 148.9905
5000.000000, 82.742, 149.8437
5080.000000, 82.165, 151.7559
5150.000000, 81.731, 153.9604
5220.000000, 81.375, 156.4640
5300.000000, 81.060, 159.5013
5380.000000, 80.838, 162.5936
5450.000000, 80.709, 165.2824
5520.000000, 80.635, 167.8923
5600.000000, 80.614, 170.7332
5700.000000, 80.679, 174.0266
5800.000000, 80.834, 176.9768
5900.000000, 81.082, 179.4212
6000.000000, 81.411, -178.8184
6080.000000, 81.721, -178.0422
6150.000000, 82.012, -177.9335
6220.000000, 82.305, -178.4504
6300.000000, 82.606, -179.8885
6400.000000, 82.852, 177.0687
6500.000000, 82.847, 173.0221
6600.000000, 82.509, 168.8857
6700.000000, 81.842, 165.9283
6800.000000, 80.973, 165.3421
6900.000000, 80.126, 167.6052
7000.000000, 79.548, 172.2162
7100.000000, 79.405, 177.6960
7200.000000, 79.676, -177.8428
7300.000000, 80.172, -175.7131
7400.000000, 80.654, -176.0834
7500.000000, 80.947, -178.2651
7620.000000, 80.947, 178.1625
7750.000000, 80.549, 174.8818
7880.000000, 79.906, 173.2770
8000.000000, 79.244, 173.4289
8120.000000, 78.608, 174.8984
8250.000000, 78.003, 177.6291
8380.000000, 77.515, -178.8477
8500.000000, 77.166, -175.1283
8620.000000, 76.916, -171.0913
8750.000000, 76.757, -166.5061
8850.000000, 76.709, -162.8753
9000.000000, 76.762, -157.3267
9120.000000, 76.915, -152.9003
9250.000000, 77.195, -148.1700
9380.000000, 77.604, -143.5575
9500.000000, 78.118, -139.4845
9620.000000, 78.788, -135.7687
9750.000000, 79.718, -132.5023
9880.000000, 80.868, -130.6690
10000.000000, 82.071, -131.0334
10150.000000, 83.563, -135.2137
10300.000000, 84.707, -143.4673
10440.000000, 85.207, -153.4450
10600.000000, 85.017, -164.9228
10750.000000, 84.255, -173.4871
10900.000000, 83.207, -178.9326
11060.000000, 82.053, 178.4175
11200.000000, 81.145, 178.0243
11380.000000, 80.179, 179.1517
11500.000000, 79.670, -179.4513
11720.000000, 79.025, -176.4812
11800.000000, 78.870, -175.5298
12060.000000, 78.542, -173.5257
12200.000000, 78.413, -173.2856
12410.000000, 78.171, -174.0599
12500.000000, 78.021, -174.7397
12650.000000, 77.676, -176.1021
12800.000000, 77.191, -177.3732
13150.000000, 75.616, -177.5216
13200.000000, 75.374, -177.0340
13400.000000, 74.507, -173.8784
13600.000000, 73.913, -169.8929
13800.000000, 73.545, -166.6374
14000.000000, 73.224, -164.3976
14300.000000, 72.652, -161.3936
14500.000000, 72.260, -158.9822
14750.000000, 71.839, -155.4805
15000.000000, 71.548, -151.5729
15250.000000, 71.403, -147.2491
15500.000000, 71.496, -142.1385
15750.000000, 72.144, -136.3694
16000.000000, 73.524, -133.6311
16250.000000, 75.045, -137.2787
16500.000000, 76.160, -145.7264
16750.000000, 76.715, -156.5910
17000.000000, 76.679, -168.0043
17250.000000, 76.146, -178.1886
17500.000000, 75.351, 173.9252
17750.000000, 74.553, 168.2652
18000.000000, 73.952, 163.8523
18250.000000, 73.630, 159.4508
18500.000000, 73.599, 153.9301
18750.000000, 73.848, 145.9933
19000.000000, 74.282, 134.1877
19250.000000, 74.663, 117.2310
19500.000000, 74.608, 94.8523
19750.000000, 73.854, 69.5905
