* Measurement data measured by REW V5.31.3
* Source: Input device not selected, no input selected, L, volume: no control
* Format: 256k Log Swept Sine, 1 sweep at -12.0 dBFS with no timing reference
* Dated: Jan 10, 2025 8:40:06 PM
* REW Settings:
*  C-weighting compensation: Off
*  Target level: 75.0 dB
* Note: ; 
* Measurement: Zenith (Stock DDDD) L
* Smoothing: 1/24 octave
* Frequency Step: 1/48 octave
* Start Frequency: 20.300 Hz
*
* Freq(Hz), SPL(dB), Phase(degrees)
20.299999, 83.085, -140.4781
20.600000, 83.060, -140.7091
20.900000, 83.047, -140.9197
21.200001, 83.063, -141.1909
21.400000, 83.092, -141.4610
21.799999, 83.179, -142.2736
22.000000, 83.227, -142.7945
22.400000, 83.310, -143.9196
22.700001, 83.355, -144.7015
23.000000, 83.387, -145.3369
23.299999, 83.413, -145.8011
23.600000, 83.442, -146.1277
24.000000, 83.490, -146.4657
24.299999, 83.530, -146.7286
24.700001, 83.579, -147.1474
25.000000, 83.608, -147.5013
25.400000, 83.636, -147.9766
25.799999, 83.659, -148.4211
26.200001, 83.686, -148.8523
26.500000, 83.709, -149.1966
26.900000, 83.741, -149.7075
27.200001, 83.763, -150.1180
27.600000, 83.787, -150.6534
28.000000, 83.808, -151.1190
28.500000, 83.836, -151.5775
29.000000, 83.864, -151.9655
29.500000, 83.886, -152.3729
30.000000, 83.901, -152.8378
30.400000, 83.915, -153.2506
30.700001, 83.931, -153.5813
31.100000, 83.960, -154.0413
31.500000, 83.991, -154.4942
32.000000, 84.020, -154.9837
32.500000, 84.037, -155.3530
33.000000, 84.050, -155.6799
33.500000, 84.064, -156.1017
34.000000, 84.076, -156.6543
34.500000, 84.081, -157.2077
35.000000, 84.087, -157.6022
35.500000, 84.104, -157.8262
36.000000, 84.132, -158.0301
36.500000, 84.158, -158.3695
37.000000, 84.170, -158.8662
37.500000, 84.172, -159.4274
38.200001, 84.171, -160.1334
38.700001, 84.163, -160.5021
39.500000, 84.124, -160.7327
40.000000, 84.109, -160.6684
40.599998, 84.140, -160.6334
41.200001, 84.214, -160.9725
41.799999, 84.261, -161.6979
42.500000, 84.229, -162.5250
43.099998, 84.171, -162.8397
43.700001, 84.165, -162.8761
44.400002, 84.243, -163.0480
45.000000, 84.326, -163.5390
45.500000, 84.359, -164.1449
46.200001, 84.322, -165.0195
46.799999, 84.246, -165.5253
47.500000, 84.187, -165.7410
48.200001, 84.191, -165.8164
48.700001, 84.204, -165.9199
49.400002, 84.207, -166.1113
50.000000, 84.208, -166.2960
50.799999, 84.228, -166.6968
51.500000, 84.234, -167.1787
52.200001, 84.212, -167.5865
53.000000, 84.187, -167.8716
53.799999, 84.196, -168.0857
54.500000, 84.207, -168.2527
55.200001, 84.194, -168.3936
56.000000, 84.171, -168.6787
57.000000, 84.179, -169.2756
58.000000, 84.240, -169.3065
59.000000, 84.317, -169.0743
60.000000, 84.280, -169.7374
60.799999, 84.178, -170.3180
61.500000, 84.117, -170.2422
62.200001, 84.111, -169.7931
63.000000, 84.124, -169.6373
64.000000, 84.073, -170.3104
65.000000, 84.032, -171.0445
66.000000, 84.076, -171.7846
67.000000, 84.089, -172.5251
68.000000, 84.077, -172.6637
69.000000, 84.081, -172.4916
70.000000, 84.060, -172.6477
71.000000, 84.018, -173.2767
72.000000, 83.980, -173.9649
73.000000, 83.937, -174.3248
74.000000, 83.873, -174.4348
75.000000, 83.830, -174.5695
76.199997, 83.834, -174.7169
77.500000, 83.829, -174.7449
78.800003, 83.731, -175.2197
80.000000, 83.688, -175.4462
81.199997, 83.722, -175.5032
82.500000, 83.720, -175.7002
83.800003, 83.709, -176.0295
85.000000, 83.666, -176.2331
86.199997, 83.630, -176.5902
87.500000, 83.613, -176.9100
88.500000, 83.584, -176.8432
90.000000, 83.526, -176.8925
91.199997, 83.513, -177.1107
92.500000, 83.500, -177.3591
93.800003, 83.462, -177.5119
95.000000, 83.425, -177.5964
96.199997, 83.396, -177.7539
97.500000, 83.371, -177.9127
98.800003, 83.342, -178.0172
100.000000, 83.306, -178.1465
101.500000, 83.264, -178.2805
103.000000, 83.225, -178.4066
104.400002, 83.192, -178.5339
106.000000, 83.157, -178.6302
107.500000, 83.125, -178.6962
109.000000, 83.086, -178.7842
110.599998, 83.040, -178.8769
112.000000, 83.003, -178.9841
113.800003, 82.959, -179.1288
115.000000, 82.931, -179.2153
117.199997, 82.872, -179.3207
118.000000, 82.852, -179.3848
120.599998, 82.797, -179.3880
122.000000, 82.756, -179.4134
124.099998, 82.707, -179.3595
125.000000, 82.685, -179.3304
126.500000, 82.649, -179.3363
128.000000, 82.611, -179.3461
131.500000, 82.513, -179.4546
132.000000, 82.502, -179.4708
134.000000, 82.453, -179.4617
136.000000, 82.396, -179.4274
138.000000, 82.346, -179.4324
140.000000, 82.290, -179.4811
143.000000, 82.218, -179.4071
145.000000, 82.167, -179.2747
147.500000, 82.096, -179.1234
150.000000, 82.032, -179.0467
152.500000, 81.984, -179.0677
155.000000, 81.929, -179.0523
157.500000, 81.850, -178.8739
160.000000, 81.771, -178.7782
162.500000, 81.721, -178.6414
165.000000, 81.663, -178.4862
167.500000, 81.584, -178.2687
170.000000, 81.529, -178.1308
172.500000, 81.494, -177.8163
175.000000, 81.426, -177.2867
177.500000, 81.321, -177.0175
180.000000, 81.276, -176.5940
182.500000, 81.224, -176.0142
185.000000, 81.157, -175.3450
187.500000, 81.166, -174.7613
190.000000, 81.211, -174.4309
192.500000, 81.237, -174.1944
195.000000, 81.243, -174.1699
197.500000, 81.224, -174.4070
200.000000, 81.188, -174.5571
203.000000, 81.140, -174.5408
206.000000, 81.094, -174.3175
209.000000, 81.040, -174.0756
212.000000, 80.983, -173.9915
214.000000, 80.947, -173.9505
218.000000, 80.882, -173.6151
220.000000, 80.842, -173.4245
224.000000, 80.766, -173.0843
227.000000, 80.721, -172.7861
230.000000, 80.673, -172.4651
233.000000, 80.622, -172.2301
236.000000, 80.575, -172.0358
240.000000, 80.515, -171.5611
243.000000, 80.477, -171.1984
247.000000, 80.425, -170.8006
250.000000, 80.388, -170.4826
254.000000, 80.335, -170.0088
258.000000, 80.281, -169.5653
262.000000, 80.234, -169.1893
265.000000, 80.199, -168.9164
269.000000, 80.150, -168.5348
272.000000, 80.113, -168.2162
276.000000, 80.069, -167.7664
280.000000, 80.021, -167.3315
285.000000, 79.965, -166.8182
290.000000, 79.915, -166.3064
295.000000, 79.852, -165.6789
300.000000, 79.798, -165.0901
304.000000, 79.755, -164.5959
307.000000, 79.722, -164.2193
311.000000, 79.682, -163.7394
315.000000, 79.644, -163.2866
320.000000, 79.598, -162.7265
325.000000, 79.554, -162.1503
330.000000, 79.507, -161.5645
335.000000, 79.459, -161.0143
340.000000, 79.414, -160.4061
345.000000, 79.372, -159.7705
350.000000, 79.336, -159.1854
355.000000, 79.302, -158.6058
360.000000, 79.268, -158.0242
365.000000, 79.235, -157.4169
370.000000, 79.202, -156.8026
375.000000, 79.166, -156.2075
382.000000, 79.117, -155.3848
387.000000, 79.084, -154.7715
395.000000, 79.037, -153.7885
400.000000, 79.005, -153.1835
406.000000, 78.964, -152.4993
412.000000, 78.936, -151.8185
418.000000, 78.910, -151.0800
425.000000, 78.873, -150.2643
431.000000, 78.840, -149.5784
437.000000, 78.812, -148.8562
444.000000, 78.783, -148.0049
450.000000, 78.758, -147.3108
455.000000, 78.737, -146.7352
462.000000, 78.706, -145.8808
468.000000, 78.679, -145.1621
475.000000, 78.655, -144.3469
482.000000, 78.634, -143.5321
487.000000, 78.617, -142.9451
494.000000, 78.591, -142.1248
500.000000, 78.568, -141.4180
508.000000, 78.542, -140.4684
515.000000, 78.524, -139.6679
522.000000, 78.505, -138.8474
530.000000, 78.485, -137.9055
538.000000, 78.469, -136.9805
545.000000, 78.454, -136.1646
552.000000, 78.438, -135.3605
560.000000, 78.422, -134.4196
570.000000, 78.404, -133.2533
580.000000, 78.386, -132.0962
590.000000, 78.374, -130.9534
600.000000, 78.364, -129.8186
608.000000, 78.354, -128.8813
615.000000, 78.347, -128.0562
622.000000, 78.341, -127.2365
630.000000, 78.336, -126.3216
640.000000, 78.331, -125.1826
650.000000, 78.327, -124.0322
660.000000, 78.330, -122.8697
670.000000, 78.337, -121.7318
680.000000, 78.344, -120.5984
690.000000, 78.349, -119.4640
700.000000, 78.364, -118.3458
710.000000, 78.383, -117.2287
720.000000, 78.400, -116.1072
730.000000, 78.418, -115.0224
740.000000, 78.442, -113.9386
750.000000, 78.472, -112.8613
762.000000, 78.510, -111.6712
775.000000, 78.558, -110.4581
788.000000, 78.609, -109.4216
800.000000, 78.629, -108.6935
812.000000, 78.590, -108.0744
825.000000, 78.460, -107.1474
838.000000, 78.305, -105.3217
850.000000, 78.243, -103.0147
862.000000, 78.279, -100.7267
875.000000, 78.375, -98.5839
885.000000, 78.460, -97.1336
900.000000, 78.593, -95.1703
912.000000, 78.700, -93.7502
925.000000, 78.812, -92.2789
938.000000, 78.924, -90.8654
950.000000, 79.026, -89.6103
962.000000, 79.128, -88.3848
975.000000, 79.241, -87.0751
988.000000, 79.358, -85.7803
1000.000000, 79.468, -84.6190
1015.000000, 79.599, -83.2288
1030.000000, 79.737, -81.8849
1044.000000, 79.874, -80.6718
1060.000000, 80.031, -79.3776
1075.000000, 80.182, -78.2372
1090.000000, 80.333, -77.1343
1106.000000, 80.489, -76.0042
1120.000000, 80.626, -75.0770
1138.000000, 80.802, -73.9706
1150.000000, 80.917, -73.2830
1172.000000, 81.119, -72.0753
1180.000000, 81.192, -71.6529
1206.000000, 81.419, -70.3322
1220.000000, 81.535, -69.6705
1241.000000, 81.708, -68.7221
1250.000000, 81.780, -68.3362
1265.000000, 81.895, -67.7030
1280.000000, 82.007, -67.0739
1315.000000, 82.263, -65.6619
1320.000000, 82.298, -65.4646
1340.000000, 82.434, -64.7037
1360.000000, 82.567, -63.9486
1380.000000, 82.696, -63.1993
1400.000000, 82.824, -62.4588
1430.000000, 83.008, -61.3526
1450.000000, 83.127, -60.6427
1475.000000, 83.275, -59.7634
1500.000000, 83.422, -58.8979
1525.000000, 83.567, -58.0366
1550.000000, 83.708, -57.1981
1575.000000, 83.849, -56.3543
1600.000000, 83.993, -55.5198
1625.000000, 84.137, -54.7322
1650.000000, 84.282, -53.9895
1675.000000, 84.426, -53.2376
1700.000000, 84.571, -52.4956
1725.000000, 84.716, -51.7920
1750.000000, 84.861, -51.1129
1775.000000, 85.005, -50.4607
1800.000000, 85.152, -49.8487
1825.000000, 85.301, -49.2664
1850.000000, 85.449, -48.7184
1875.000000, 85.599, -48.2195
1900.000000, 85.747, -47.7571
1925.000000, 85.895, -47.3262
1950.000000, 86.041, -46.9340
1975.000000, 86.188, -46.5833
2000.000000, 86.333, -46.2828
2030.000000, 86.507, -45.9693
2060.000000, 86.680, -45.7150
2090.000000, 86.850, -45.5408
2120.000000, 87.013, -45.4368
2140.000000, 87.120, -45.4020
2180.000000, 87.327, -45.4110
2200.000000, 87.428, -45.4622
2240.000000, 87.620, -45.6577
2270.000000, 87.754, -45.8812
2300.000000, 87.881, -46.1621
2330.000000, 87.999, -46.4830
2360.000000, 88.106, -46.8506
2400.000000, 88.232, -47.4253
2430.000000, 88.314, -47.9010
2470.000000, 88.406, -48.5792
2500.000000, 88.461, -49.1330
2540.000000, 88.515, -49.9087
2580.000000, 88.546, -50.6839
2620.000000, 88.556, -51.4535
2650.000000, 88.551, -52.0164
2690.000000, 88.525, -52.7463
2720.000000, 88.493, -53.2760
2760.000000, 88.436, -53.9342
2800.000000, 88.362, -54.5240
2850.000000, 88.247, -55.1729
2900.000000, 88.115, -55.7027
2950.000000, 87.967, -56.1191
3000.000000, 87.805, -56.4182
3040.000000, 87.668, -56.5571
3070.000000, 87.563, -56.6066
3110.000000, 87.419, -56.6016
3150.000000, 87.272, -56.5251
3200.000000, 87.086, -56.3323
3250.000000, 86.899, -56.0456
3300.000000, 86.710, -55.6657
3350.000000, 86.526, -55.1902
3400.000000, 86.346, -54.6350
3450.000000, 86.167, -54.0136
3500.000000, 85.992, -53.3122
3550.000000, 85.821, -52.5490
3600.000000, 85.656, -51.7434
3650.000000, 85.496, -50.8975
3700.000000, 85.340, -50.0056
3750.000000, 85.191, -49.0742
3820.000000, 84.992, -47.7320
3870.000000, 84.853, -46.7499
3950.000000, 84.646, -45.1387
4000.000000, 84.521, -44.0926
4060.000000, 84.374, -42.8156
4120.000000, 84.237, -41.5226
4180.000000, 84.105, -40.2195
4250.000000, 83.961, -38.6867
4310.000000, 83.846, -37.3624
4370.000000, 83.738, -36.0435
4440.000000, 83.621, -34.5282
4500.000000, 83.526, -33.2662
4550.000000, 83.450, -32.2387
4620.000000, 83.344, -30.8402
4680.000000, 83.253, -29.6618
4750.000000, 83.143, -28.2832
4820.000000, 83.032, -26.9115
4870.000000, 82.952, -25.9359
4940.000000, 82.841, -24.5705
5000.000000, 82.746, -23.3896
5080.000000, 82.620, -21.8187
5150.000000, 82.508, -20.4247
5220.000000, 82.397, -19.0201
5300.000000, 82.269, -17.4281
5380.000000, 82.139, -15.8195
5450.000000, 82.025, -14.3960
5520.000000, 81.912, -12.9580
5600.000000, 81.786, -11.2717
5700.000000, 81.624, -9.0982
5800.000000, 81.460, -6.8369
5900.000000, 81.307, -4.4858
6000.000000, 81.161, -2.0725
6080.000000, 81.052, -0.1036
6150.000000, 80.962, 1.6690
6220.000000, 80.879, 3.4506
6300.000000, 80.793, 5.5076
6400.000000, 80.693, 8.1514
6500.000000, 80.600, 10.8385
6600.000000, 80.513, 13.6247
6700.000000, 80.447, 16.7309
6800.000000, 80.472, 19.9748
6900.000000, 80.532, 22.6823
7000.000000, 80.564, 25.3886
7100.000000, 80.614, 28.2435
7200.000000, 80.699, 31.1267
7300.000000, 80.820, 34.0054
7400.000000, 80.976, 36.8423
7500.000000, 81.165, 39.6365
7620.000000, 81.439, 42.9049
7750.000000, 81.808, 46.3239
7880.000000, 82.251, 49.5543
8000.000000, 82.737, 52.3207
8120.000000, 83.313, 54.8301
8250.000000, 84.047, 57.1019
8380.000000, 84.917, 58.7134
8500.000000, 85.853, 59.3428
8620.000000, 86.923, 58.7320
8750.000000, 88.199, 56.0432
8850.000000, 89.201, 52.0728
9000.000000, 90.527, 42.4921
9120.000000, 91.195, 31.9666
9250.000000, 91.305, 19.1443
9380.000000, 90.750, 6.9955
9500.000000, 89.796, -2.0922
9620.000000, 88.622, -8.5973
9750.000000, 87.306, -12.9601
9880.000000, 86.072, -15.1937
10000.000000, 85.054, -15.9655
10150.000000, 83.957, -15.8136
10300.000000, 83.040, -14.9286
10440.000000, 82.326, -13.7631
10600.000000, 81.653, -12.3451
10750.000000, 81.141, -11.1156
10900.000000, 80.719, -10.0932
11060.000000, 80.342, -9.3762
11200.000000, 80.053, -9.1501
11380.000000, 79.701, -9.4658
11500.000000, 79.459, -10.0434
11720.000000, 78.947, -11.7991
11800.000000, 78.727, -12.6055
12060.000000, 77.852, -15.4190
12200.000000, 77.277, -16.7836
12410.000000, 76.305, -18.3000
12500.000000, 75.855, -18.7008
12650.000000, 75.069, -18.9916
12800.000000, 74.260, -18.7705
13150.000000, 72.377, -16.4444
13200.000000, 72.111, -15.9320
13400.000000, 71.061, -13.4458
13600.000000, 70.028, -10.3819
13800.000000, 68.989, -6.6458
14000.000000, 67.911, -1.5545
14300.000000, 66.507, 13.4745
14500.000000, 66.970, 28.7043
14750.000000, 68.693, 34.0690
15000.000000, 69.305, 30.1147
15250.000000, 69.231, 28.5986
15500.000000, 69.219, 29.5570
15750.000000, 69.475, 30.9906
16000.000000, 70.028, 31.4503
16250.000000, 70.827, 29.6534
16500.000000, 71.734, 24.6203
16750.000000, 72.492, 15.5336
17000.000000, 72.726, 2.7825
17250.000000, 72.166, -11.5685
17500.000000, 70.810, -24.8509
17750.000000, 68.878, -35.4571
18000.000000, 66.654, -43.5459
18250.000000, 64.301, -50.5332
18500.000000, 61.750, -57.6482
18750.000000, 58.755, -64.9050
19000.000000, 55.113, -70.7143
19250.000000, 50.853, -72.7426
19500.000000, 46.256, -70.2882
19750.000000, 41.873, -64.0436
