* Measurement data measured by REW V5.31.3
* Source: Input device not selected, no input selected, L, volume: no control
* Format: 256k Log Swept Sine, 1 sweep at -12.0 dBFS with no timing reference
* Dated: Jan 10, 2025 8:34:50 PM
* REW Settings:
*  C-weighting compensation: Off
*  Target level: 75.0 dB
* Note: ; 
* Measurement: Zenith (Stock UUUU) L
* Smoothing: 1/24 octave
* Frequency Step: 1/48 octave
* Start Frequency: 20.300 Hz
*
* Freq(Hz), SPL(dB), Phase(degrees)
20.299999, 85.823, -147.8145
20.600000, 85.828, -148.3148
20.900000, 85.834, -148.9020
21.200001, 85.847, -149.5214
21.400000, 85.859, -149.9450
21.799999, 85.893, -150.7896
22.000000, 85.911, -151.1939
22.400000, 85.945, -151.9313
22.700001, 85.966, -152.4128
23.000000, 85.983, -152.8462
23.299999, 85.999, -153.2618
23.600000, 86.015, -153.6958
24.000000, 86.038, -154.3476
24.299999, 86.057, -154.8969
24.700001, 86.081, -155.6710
25.000000, 86.098, -156.2402
25.400000, 86.120, -156.9316
25.799999, 86.141, -157.5304
26.200001, 86.161, -158.0700
26.500000, 86.173, -158.4690
26.900000, 86.185, -159.0253
27.200001, 86.191, -159.4641
27.600000, 86.197, -160.0614
28.000000, 86.208, -160.6462
28.500000, 86.228, -161.3352
29.000000, 86.247, -161.9745
29.500000, 86.252, -162.5661
30.000000, 86.238, -163.1187
30.400000, 86.224, -163.5630
30.700001, 86.218, -163.9235
31.100000, 86.217, -164.4622
31.500000, 86.223, -165.0536
32.000000, 86.230, -165.7680
32.500000, 86.232, -166.3146
33.000000, 86.234, -166.6600
33.500000, 86.242, -166.9472
34.000000, 86.248, -167.3719
34.500000, 86.236, -167.9962
35.000000, 86.202, -168.7018
35.500000, 86.165, -169.3154
36.000000, 86.147, -169.7692
36.500000, 86.149, -170.1260
37.000000, 86.154, -170.4731
37.500000, 86.142, -170.8317
38.200001, 86.101, -171.3229
38.700001, 86.076, -171.6994
39.500000, 86.065, -172.4537
40.000000, 86.060, -172.9540
40.599998, 86.045, -173.4462
41.200001, 86.021, -173.8240
41.799999, 85.992, -174.2170
42.500000, 85.955, -174.7627
43.099998, 85.934, -175.2300
43.700001, 85.926, -175.6514
44.400002, 85.912, -176.0784
45.000000, 85.881, -176.3286
45.500000, 85.859, -176.4489
46.200001, 85.864, -176.6717
46.799999, 85.882, -177.0765
47.500000, 85.863, -177.6811
48.200001, 85.792, -178.1473
48.700001, 85.740, -178.3930
49.400002, 85.696, -178.7934
50.000000, 85.678, -179.2180
50.799999, 85.652, -179.6909
51.500000, 85.620, -179.9460
52.200001, 85.586, 179.7918
53.000000, 85.553, 179.3570
53.799999, 85.519, 178.9029
54.500000, 85.484, 178.5999
55.200001, 85.445, 178.3390
56.000000, 85.401, 178.0223
57.000000, 85.357, 177.6525
58.000000, 85.297, 177.2526
59.000000, 85.222, 176.8687
60.000000, 85.217, 176.6437
60.799999, 85.225, 176.5454
61.500000, 85.202, 176.4777
62.200001, 85.166, 176.2272
63.000000, 85.120, 175.5921
64.000000, 85.046, 175.0107
65.000000, 84.981, 175.0234
66.000000, 84.917, 174.8553
67.000000, 84.879, 174.5582
68.000000, 84.882, 174.3484
69.000000, 84.817, 174.2101
70.000000, 84.701, 174.2266
71.000000, 84.634, 173.9998
72.000000, 84.586, 173.5089
73.000000, 84.537, 173.2595
74.000000, 84.501, 173.1687
75.000000, 84.458, 173.0538
76.199997, 84.402, 172.8568
77.500000, 84.333, 172.5587
78.800003, 84.272, 172.2734
80.000000, 84.218, 172.1968
81.199997, 84.154, 172.2188
82.500000, 84.091, 172.0558
83.800003, 84.045, 171.8160
85.000000, 83.989, 171.6468
86.199997, 83.933, 171.5372
87.500000, 83.880, 171.4837
88.500000, 83.835, 171.4299
90.000000, 83.766, 171.2739
91.199997, 83.709, 171.1859
92.500000, 83.651, 171.1092
93.800003, 83.591, 171.0529
95.000000, 83.533, 171.0219
96.199997, 83.482, 170.9805
97.500000, 83.428, 170.9459
98.800003, 83.369, 170.8888
100.000000, 83.317, 170.8428
101.500000, 83.253, 170.8248
103.000000, 83.190, 170.8294
104.400002, 83.128, 170.8504
106.000000, 83.052, 170.8453
107.500000, 82.996, 170.8463
109.000000, 82.947, 170.8525
110.599998, 82.892, 170.9031
112.000000, 82.836, 170.9485
113.800003, 82.755, 170.9980
115.000000, 82.704, 171.0239
117.199997, 82.619, 171.0843
118.000000, 82.589, 171.1189
120.599998, 82.502, 171.2046
122.000000, 82.451, 171.2718
124.099998, 82.373, 171.4568
125.000000, 82.341, 171.5354
126.500000, 82.290, 171.6360
128.000000, 82.241, 171.7217
131.500000, 82.109, 172.0207
132.000000, 82.091, 172.0617
134.000000, 82.023, 172.1996
136.000000, 81.955, 172.3428
138.000000, 81.895, 172.4915
140.000000, 81.833, 172.5959
143.000000, 81.746, 172.9112
145.000000, 81.682, 173.1147
147.500000, 81.601, 173.3378
150.000000, 81.528, 173.6125
152.500000, 81.453, 173.9297
155.000000, 81.378, 174.1872
157.500000, 81.309, 174.4542
160.000000, 81.240, 174.7834
162.500000, 81.166, 175.0753
165.000000, 81.089, 175.3824
167.500000, 81.024, 175.6737
170.000000, 80.956, 175.9665
172.500000, 80.875, 176.3049
175.000000, 80.798, 176.6490
177.500000, 80.724, 177.0352
180.000000, 80.648, 177.5853
182.500000, 80.589, 178.1290
185.000000, 80.541, 178.5552
187.500000, 80.492, 178.9951
190.000000, 80.462, 179.4932
192.500000, 80.454, 179.9543
195.000000, 80.442, -179.6376
197.500000, 80.421, -179.2771
200.000000, 80.403, -179.0205
203.000000, 80.373, -178.7104
206.000000, 80.337, -178.3348
209.000000, 80.298, -177.9628
212.000000, 80.255, -177.6557
214.000000, 80.222, -177.4668
218.000000, 80.151, -177.0774
220.000000, 80.122, -176.9177
224.000000, 80.062, -176.5737
227.000000, 80.017, -176.2285
230.000000, 79.973, -175.8398
233.000000, 79.917, -175.3663
236.000000, 79.856, -174.9107
240.000000, 79.792, -174.4001
243.000000, 79.749, -173.9845
247.000000, 79.694, -173.4188
250.000000, 79.656, -172.9826
254.000000, 79.610, -172.3683
258.000000, 79.565, -171.7799
262.000000, 79.521, -171.2300
265.000000, 79.489, -170.8061
269.000000, 79.446, -170.2381
272.000000, 79.416, -169.8334
276.000000, 79.384, -169.3182
280.000000, 79.353, -168.8259
285.000000, 79.305, -168.1973
290.000000, 79.252, -167.5448
295.000000, 79.202, -166.8648
300.000000, 79.157, -166.2293
304.000000, 79.120, -165.7361
307.000000, 79.092, -165.3655
311.000000, 79.054, -164.8438
315.000000, 79.020, -164.3030
320.000000, 78.979, -163.6393
325.000000, 78.935, -162.9869
330.000000, 78.895, -162.3298
335.000000, 78.859, -161.6584
340.000000, 78.823, -160.9914
345.000000, 78.784, -160.3510
350.000000, 78.750, -159.7055
355.000000, 78.722, -159.0425
360.000000, 78.691, -158.3854
365.000000, 78.659, -157.7280
370.000000, 78.631, -157.0597
375.000000, 78.602, -156.3908
382.000000, 78.562, -155.4854
387.000000, 78.536, -154.8491
395.000000, 78.495, -153.8261
400.000000, 78.468, -153.1909
406.000000, 78.442, -152.4142
412.000000, 78.417, -151.6353
418.000000, 78.393, -150.9000
425.000000, 78.362, -150.0175
431.000000, 78.338, -149.2457
437.000000, 78.316, -148.4922
444.000000, 78.292, -147.6454
450.000000, 78.269, -146.9277
455.000000, 78.251, -146.3189
462.000000, 78.229, -145.4503
468.000000, 78.212, -144.6929
475.000000, 78.194, -143.8389
482.000000, 78.174, -142.9955
487.000000, 78.161, -142.3837
494.000000, 78.145, -141.5397
500.000000, 78.130, -140.8180
508.000000, 78.112, -139.8651
515.000000, 78.097, -139.0338
522.000000, 78.083, -138.1894
530.000000, 78.068, -137.2175
538.000000, 78.055, -136.2744
545.000000, 78.046, -135.4612
552.000000, 78.035, -134.6378
560.000000, 78.021, -133.6790
570.000000, 78.009, -132.4879
580.000000, 78.002, -131.3222
590.000000, 77.992, -130.1699
600.000000, 77.986, -128.9961
608.000000, 77.981, -128.0633
615.000000, 77.977, -127.2373
622.000000, 77.977, -126.4138
630.000000, 77.979, -125.4958
640.000000, 77.981, -124.3640
650.000000, 77.980, -123.2185
660.000000, 77.983, -122.0694
670.000000, 77.991, -120.9220
680.000000, 78.000, -119.7707
690.000000, 78.016, -118.6180
700.000000, 78.034, -117.4730
710.000000, 78.054, -116.3542
720.000000, 78.077, -115.2516
730.000000, 78.098, -114.1437
740.000000, 78.123, -113.0513
750.000000, 78.150, -111.9842
762.000000, 78.187, -110.7410
775.000000, 78.237, -109.4652
788.000000, 78.288, -108.3261
800.000000, 78.325, -107.4643
812.000000, 78.331, -106.7896
825.000000, 78.267, -106.0713
838.000000, 78.126, -104.8348
850.000000, 78.007, -102.9088
862.000000, 77.983, -100.5231
875.000000, 78.052, -98.1065
885.000000, 78.136, -96.5249
900.000000, 78.276, -94.4489
912.000000, 78.389, -92.9660
925.000000, 78.509, -91.4710
938.000000, 78.628, -90.0462
950.000000, 78.734, -88.7776
962.000000, 78.839, -87.5448
975.000000, 78.953, -86.2575
988.000000, 79.069, -85.0392
1000.000000, 79.178, -83.9264
1015.000000, 79.318, -82.5247
1030.000000, 79.460, -81.1917
1044.000000, 79.595, -79.9963
1060.000000, 79.751, -78.6890
1075.000000, 79.901, -77.5151
1090.000000, 80.053, -76.4163
1106.000000, 80.214, -75.3255
1120.000000, 80.353, -74.4314
1138.000000, 80.527, -73.3489
1150.000000, 80.640, -72.6652
1172.000000, 80.842, -71.4594
1180.000000, 80.914, -71.0438
1206.000000, 81.144, -69.7664
1220.000000, 81.263, -69.1253
1241.000000, 81.434, -68.2050
1250.000000, 81.505, -67.8219
1265.000000, 81.622, -67.1929
1280.000000, 81.734, -66.5752
1315.000000, 81.982, -65.2013
1320.000000, 82.016, -65.0112
1340.000000, 82.150, -64.2620
1360.000000, 82.281, -63.5194
1380.000000, 82.407, -62.8033
1400.000000, 82.529, -62.0981
1430.000000, 82.709, -61.0360
1450.000000, 82.824, -60.3366
1475.000000, 82.966, -59.4765
1500.000000, 83.110, -58.6313
1525.000000, 83.251, -57.7905
1550.000000, 83.388, -56.9680
1575.000000, 83.525, -56.1631
1600.000000, 83.661, -55.3695
1625.000000, 83.797, -54.5973
1650.000000, 83.936, -53.8388
1675.000000, 84.071, -53.1090
1700.000000, 84.206, -52.3961
1725.000000, 84.343, -51.7177
1750.000000, 84.480, -51.0638
1775.000000, 84.617, -50.4362
1800.000000, 84.755, -49.8385
1825.000000, 84.892, -49.2668
1850.000000, 85.030, -48.7284
1875.000000, 85.168, -48.2270
1900.000000, 85.305, -47.7605
1925.000000, 85.441, -47.3330
1950.000000, 85.578, -46.9456
1975.000000, 85.712, -46.5943
2000.000000, 85.846, -46.2788
2030.000000, 86.002, -45.9634
2060.000000, 86.157, -45.7063
2090.000000, 86.309, -45.4971
2120.000000, 86.455, -45.3504
2140.000000, 86.550, -45.2883
2180.000000, 86.734, -45.2296
2200.000000, 86.822, -45.2379
2240.000000, 86.989, -45.3289
2270.000000, 87.106, -45.4572
2300.000000, 87.216, -45.6406
2330.000000, 87.316, -45.8722
2360.000000, 87.408, -46.1439
2400.000000, 87.515, -46.5534
2430.000000, 87.585, -46.8996
2470.000000, 87.661, -47.4027
2500.000000, 87.706, -47.7960
2540.000000, 87.749, -48.3359
2580.000000, 87.773, -48.8941
2620.000000, 87.779, -49.4449
2650.000000, 87.773, -49.8446
2690.000000, 87.749, -50.3587
2720.000000, 87.721, -50.7248
2760.000000, 87.669, -51.1737
2800.000000, 87.604, -51.5658
2850.000000, 87.506, -51.9778
2900.000000, 87.392, -52.2994
2950.000000, 87.263, -52.5190
3000.000000, 87.123, -52.6359
3040.000000, 87.006, -52.6492
3070.000000, 86.914, -52.6180
3110.000000, 86.789, -52.5280
3150.000000, 86.662, -52.3701
3200.000000, 86.500, -52.0798
3250.000000, 86.335, -51.7109
3300.000000, 86.171, -51.2593
3350.000000, 86.009, -50.7270
3400.000000, 85.849, -50.1225
3450.000000, 85.692, -49.4468
3500.000000, 85.539, -48.7235
3550.000000, 85.390, -47.9494
3600.000000, 85.244, -47.1313
3650.000000, 85.102, -46.2825
3700.000000, 84.965, -45.3936
3750.000000, 84.832, -44.4640
3820.000000, 84.654, -43.1275
3870.000000, 84.532, -42.1532
3950.000000, 84.348, -40.5494
4000.000000, 84.238, -39.5325
4060.000000, 84.110, -38.3003
4120.000000, 83.988, -37.0518
4180.000000, 83.872, -35.7977
4250.000000, 83.741, -34.3298
4310.000000, 83.634, -33.0633
4370.000000, 83.532, -31.7858
4440.000000, 83.422, -30.2934
4500.000000, 83.332, -29.0349
4550.000000, 83.261, -28.0027
4620.000000, 83.166, -26.5699
4680.000000, 83.089, -25.3718
4750.000000, 82.998, -24.0098
4820.000000, 82.906, -22.6651
4870.000000, 82.840, -21.7185
4940.000000, 82.747, -20.4151
5000.000000, 82.667, -19.3052
5080.000000, 82.558, -17.8089
5150.000000, 82.461, -16.4934
5220.000000, 82.361, -15.1744
5300.000000, 82.243, -13.6701
5380.000000, 82.124, -12.1593
5450.000000, 82.018, -10.8096
5520.000000, 81.911, -9.4238
5600.000000, 81.786, -7.8039
5700.000000, 81.632, -5.7085
5800.000000, 81.483, -3.5346
5900.000000, 81.340, -1.2712
6000.000000, 81.202, 1.0718
6080.000000, 81.101, 3.0079
6150.000000, 81.023, 4.7229
6220.000000, 80.952, 6.4525
6300.000000, 80.877, 8.4473
6400.000000, 80.793, 10.9663
6500.000000, 80.717, 13.5148
6600.000000, 80.644, 16.1433
6700.000000, 80.582, 19.0168
6800.000000, 80.589, 22.1902
6900.000000, 80.659, 24.9265
7000.000000, 80.704, 27.4934
7100.000000, 80.760, 30.2479
7200.000000, 80.855, 33.0774
7300.000000, 80.987, 35.8848
7400.000000, 81.153, 38.6495
7500.000000, 81.358, 41.3738
7620.000000, 81.663, 44.5795
7750.000000, 82.067, 47.8976
7880.000000, 82.561, 51.0131
8000.000000, 83.107, 53.6225
8120.000000, 83.755, 55.8767
8250.000000, 84.588, 57.7187
8380.000000, 85.575, 58.6272
8500.000000, 86.624, 58.2277
8620.000000, 87.785, 56.1166
8750.000000, 89.090, 51.1878
8850.000000, 90.012, 45.1548
9000.000000, 90.974, 32.5866
9120.000000, 91.154, 20.7088
9250.000000, 90.688, 8.1900
9380.000000, 89.680, -2.0653
9500.000000, 88.496, -8.7997
9620.000000, 87.257, -13.0683
9750.000000, 85.987, -15.5236
9880.000000, 84.852, -16.4146
10000.000000, 83.936, -16.3288
10150.000000, 82.961, -15.4654
10300.000000, 82.154, -14.1594
10440.000000, 81.531, -12.7930
10600.000000, 80.949, -11.2596
10750.000000, 80.507, -10.0118
10900.000000, 80.146, -9.0764
11060.000000, 79.825, -8.5304
11200.000000, 79.575, -8.5060
11380.000000, 79.253, -9.1197
11500.000000, 79.018, -9.9078
11720.000000, 78.499, -11.9808
11800.000000, 78.271, -12.8759
12060.000000, 77.358, -15.8112
12200.000000, 76.761, -17.1454
12410.000000, 75.756, -18.5671
12500.000000, 75.295, -18.8965
12650.000000, 74.500, -19.0147
12800.000000, 73.690, -18.6098
13150.000000, 71.836, -15.8078
13200.000000, 71.578, -15.2290
13400.000000, 70.571, -12.5220
13600.000000, 69.598, -9.2553
13800.000000, 68.643, -5.3548
14000.000000, 67.664, -0.4164
14300.000000, 66.335, 12.6597
14500.000000, 66.549, 26.7346
14750.000000, 68.178, 34.3928
15000.000000, 69.044, 31.5915
15250.000000, 69.193, 29.9319
15500.000000, 69.372, 30.2964
15750.000000, 69.828, 30.8231
16000.000000, 70.579, 29.8928
16250.000000, 71.548, 26.1191
16500.000000, 72.524, 18.3248
16750.000000, 73.141, 6.1766
17000.000000, 73.019, -8.8859
17250.000000, 71.999, -23.9885
17500.000000, 70.242, -36.7412
17750.000000, 68.068, -46.3710
18000.000000, 65.719, -53.6560
18250.000000, 63.242, -59.9843
18500.000000, 60.540, -66.2259
18750.000000, 57.480, -72.6152
19000.000000, 53.874, -78.4404
19250.000000, 49.585, -81.5550
19500.000000, 44.657, -78.7512
19750.000000, 39.561, -68.4952
