* Measurement data measured by REW V5.31.3
* Source: Input device not selected, no input selected, L, volume: no control
* Format: 256k Log Swept Sine, 1 sweep at -12.0 dBFS with no timing reference
* Dated: Jan 10, 2025 8:38:27 PM
* REW Settings:
*  C-weighting compensation: Off
*  Target level: 75.0 dB
* Note: ; 
* Measurement: Zenith (Stock UUUD) L
* Smoothing: 1/24 octave
* Frequency Step: 1/48 octave
* Start Frequency: 20.300 Hz
*
* Freq(Hz), SPL(dB), Phase(degrees)
20.299999, 86.121, -148.2012
20.600000, 86.144, -148.9227
20.900000, 86.163, -149.6384
21.200001, 86.183, -150.2382
21.400000, 86.199, -150.5874
21.799999, 86.239, -151.2497
22.000000, 86.259, -151.5960
22.400000, 86.285, -152.3450
22.700001, 86.289, -152.9309
23.000000, 86.283, -153.4979
23.299999, 86.276, -154.0220
23.600000, 86.277, -154.5060
24.000000, 86.299, -155.1333
24.299999, 86.328, -155.6252
24.700001, 86.371, -156.3230
25.000000, 86.397, -156.8564
25.400000, 86.420, -157.5363
25.799999, 86.436, -158.1588
26.200001, 86.453, -158.7499
26.500000, 86.469, -159.2003
26.900000, 86.494, -159.8247
27.200001, 86.512, -160.2948
27.600000, 86.529, -160.8793
28.000000, 86.538, -161.3765
28.500000, 86.540, -161.8873
29.000000, 86.533, -162.3730
29.500000, 86.520, -162.9276
30.000000, 86.505, -163.5644
30.400000, 86.502, -164.1041
30.700001, 86.507, -164.5101
31.100000, 86.523, -165.0369
31.500000, 86.541, -165.5276
32.000000, 86.555, -166.0621
32.500000, 86.555, -166.5151
33.000000, 86.551, -166.9715
33.500000, 86.545, -167.5446
34.000000, 86.531, -168.2508
34.500000, 86.503, -168.9547
35.000000, 86.468, -169.4885
35.500000, 86.446, -169.8268
36.000000, 86.446, -170.1215
36.500000, 86.455, -170.5391
37.000000, 86.453, -171.0840
37.500000, 86.434, -171.6151
38.200001, 86.403, -172.1386
38.700001, 86.389, -172.4108
39.500000, 86.359, -172.9471
40.000000, 86.329, -173.3766
40.599998, 86.297, -173.9050
41.200001, 86.288, -174.3733
41.799999, 86.298, -174.7756
42.500000, 86.297, -175.2418
43.099998, 86.262, -175.6874
43.700001, 86.207, -176.1193
44.400002, 86.163, -176.4930
45.000000, 86.165, -176.7204
45.500000, 86.177, -176.9135
46.200001, 86.171, -177.2661
46.799999, 86.137, -177.6921
47.500000, 86.084, -178.3499
48.200001, 86.037, -179.0174
48.700001, 86.010, -179.3510
49.400002, 85.981, -179.5891
50.000000, 85.958, -179.7574
50.799999, 85.915, 179.8564
51.500000, 85.876, 179.4752
52.200001, 85.859, 179.1851
53.000000, 85.860, 178.8585
53.799999, 85.843, 178.4955
54.500000, 85.822, 178.2909
55.200001, 85.818, 178.1011
56.000000, 85.788, 177.6286
57.000000, 85.636, 177.0175
58.000000, 85.508, 176.9380
59.000000, 85.492, 176.7400
60.000000, 85.472, 176.2126
60.799999, 85.433, 175.7937
61.500000, 85.386, 175.5356
62.200001, 85.338, 175.4036
63.000000, 85.313, 175.1646
64.000000, 85.316, 174.3384
65.000000, 85.269, 173.8217
66.000000, 85.212, 174.3125
67.000000, 85.170, 174.3776
68.000000, 85.084, 173.7118
69.000000, 85.016, 173.2841
70.000000, 84.967, 173.1475
71.000000, 84.904, 173.1482
72.000000, 84.866, 173.0427
73.000000, 84.843, 172.6851
74.000000, 84.818, 172.2823
75.000000, 84.786, 172.0176
76.199997, 84.741, 171.9553
77.500000, 84.692, 171.8574
78.800003, 84.604, 171.6627
80.000000, 84.505, 171.4192
81.199997, 84.436, 171.2848
82.500000, 84.393, 171.2819
83.800003, 84.338, 170.9995
85.000000, 84.276, 170.7002
86.199997, 84.214, 170.6149
87.500000, 84.156, 170.5558
88.500000, 84.109, 170.4878
90.000000, 84.039, 170.4160
91.199997, 83.988, 170.3627
92.500000, 83.922, 170.2560
93.800003, 83.857, 170.1255
95.000000, 83.818, 170.0734
96.199997, 83.772, 170.0179
97.500000, 83.704, 169.9471
98.800003, 83.646, 169.9277
100.000000, 83.599, 169.9327
101.500000, 83.531, 169.9133
103.000000, 83.469, 169.8514
104.400002, 83.418, 169.8857
106.000000, 83.350, 169.9676
107.500000, 83.281, 169.9545
109.000000, 83.215, 169.9731
110.599998, 83.133, 170.0394
112.000000, 83.048, 169.9579
113.800003, 82.984, 169.9534
115.000000, 82.964, 170.0217
117.199997, 82.904, 170.1292
118.000000, 82.873, 170.2155
120.599998, 82.774, 170.2732
122.000000, 82.720, 170.2674
124.099998, 82.642, 170.2778
125.000000, 82.616, 170.3037
126.500000, 82.570, 170.4421
128.000000, 82.516, 170.6234
131.500000, 82.385, 170.8442
132.000000, 82.366, 170.8831
134.000000, 82.300, 171.0680
136.000000, 82.233, 171.1601
138.000000, 82.165, 171.2371
140.000000, 82.110, 171.4310
143.000000, 82.036, 171.6895
145.000000, 81.971, 171.8817
147.500000, 81.871, 172.1367
150.000000, 81.793, 172.4426
152.500000, 81.724, 172.6040
155.000000, 81.651, 172.7992
157.500000, 81.572, 173.0882
160.000000, 81.501, 173.3625
162.500000, 81.438, 173.7157
165.000000, 81.358, 173.9963
167.500000, 81.290, 174.2153
170.000000, 81.230, 174.4940
172.500000, 81.172, 174.7787
175.000000, 81.104, 175.0950
177.500000, 81.035, 175.4694
180.000000, 80.969, 175.7572
182.500000, 80.903, 175.9852
185.000000, 80.851, 176.1799
187.500000, 80.804, 176.4272
190.000000, 80.747, 176.7832
192.500000, 80.686, 177.1513
195.000000, 80.628, 177.5532
197.500000, 80.572, 177.9359
200.000000, 80.506, 178.2565
203.000000, 80.420, 178.6638
206.000000, 80.344, 179.1431
209.000000, 80.263, 179.7851
212.000000, 80.182, -179.4454
214.000000, 80.152, -178.9334
218.000000, 80.141, -177.7176
220.000000, 80.150, -177.1203
224.000000, 80.194, -176.4846
227.000000, 80.232, -176.5069
230.000000, 80.251, -176.5598
233.000000, 80.223, -176.3253
236.000000, 80.145, -175.9090
240.000000, 80.043, -175.5388
243.000000, 79.981, -175.2825
247.000000, 79.916, -174.9410
250.000000, 79.873, -174.5985
254.000000, 79.813, -174.0351
258.000000, 79.752, -173.5366
262.000000, 79.692, -173.0279
265.000000, 79.649, -172.6109
269.000000, 79.602, -172.0956
272.000000, 79.565, -171.7051
276.000000, 79.509, -171.1954
280.000000, 79.459, -170.6804
285.000000, 79.403, -169.9651
290.000000, 79.352, -169.2354
295.000000, 79.304, -168.6046
300.000000, 79.250, -167.9555
304.000000, 79.210, -167.3888
307.000000, 79.181, -166.9889
311.000000, 79.143, -166.4699
315.000000, 79.107, -165.9330
320.000000, 79.061, -165.2452
325.000000, 79.021, -164.5685
330.000000, 78.983, -163.9610
335.000000, 78.939, -163.3190
340.000000, 78.897, -162.6675
345.000000, 78.859, -162.0076
350.000000, 78.826, -161.2938
355.000000, 78.794, -160.6297
360.000000, 78.759, -159.9735
365.000000, 78.720, -159.3288
370.000000, 78.684, -158.7163
375.000000, 78.654, -158.0753
382.000000, 78.613, -157.1580
387.000000, 78.583, -156.4787
395.000000, 78.542, -155.4556
400.000000, 78.519, -154.8435
406.000000, 78.491, -154.0652
412.000000, 78.464, -153.2755
418.000000, 78.439, -152.5068
425.000000, 78.406, -151.6031
431.000000, 78.373, -150.8091
437.000000, 78.343, -150.0619
444.000000, 78.312, -149.2555
450.000000, 78.292, -148.5349
455.000000, 78.276, -147.8923
462.000000, 78.253, -146.9701
468.000000, 78.232, -146.1983
475.000000, 78.207, -145.3401
482.000000, 78.184, -144.5262
487.000000, 78.169, -143.9720
494.000000, 78.147, -143.1691
500.000000, 78.129, -142.4153
508.000000, 78.111, -141.3854
515.000000, 78.097, -140.5119
522.000000, 78.082, -139.6516
530.000000, 78.065, -138.6866
538.000000, 78.050, -137.7180
545.000000, 78.037, -136.8575
552.000000, 78.023, -136.0175
560.000000, 78.012, -135.0771
570.000000, 78.001, -133.8822
580.000000, 77.989, -132.6619
590.000000, 77.975, -131.4990
600.000000, 77.964, -130.3466
608.000000, 77.959, -129.4140
615.000000, 77.957, -128.5939
622.000000, 77.956, -127.7709
630.000000, 77.956, -126.7968
640.000000, 77.955, -125.6269
650.000000, 77.954, -124.5045
660.000000, 77.956, -123.3295
670.000000, 77.958, -122.1596
680.000000, 77.967, -121.0155
690.000000, 77.977, -119.8668
700.000000, 77.992, -118.7162
710.000000, 78.014, -117.5762
720.000000, 78.036, -116.4613
730.000000, 78.057, -115.3450
740.000000, 78.083, -114.2545
750.000000, 78.116, -113.1908
762.000000, 78.161, -111.9477
775.000000, 78.208, -110.6890
788.000000, 78.258, -109.6389
800.000000, 78.285, -108.8971
812.000000, 78.252, -108.2716
825.000000, 78.125, -107.3277
838.000000, 77.975, -105.4901
850.000000, 77.917, -103.1858
862.000000, 77.953, -100.8835
875.000000, 78.048, -98.7004
885.000000, 78.132, -97.2414
900.000000, 78.263, -95.2931
912.000000, 78.369, -93.8658
925.000000, 78.481, -92.3869
938.000000, 78.593, -90.9820
950.000000, 78.701, -89.7152
962.000000, 78.806, -88.4706
975.000000, 78.914, -87.1754
988.000000, 79.025, -85.9184
1000.000000, 79.133, -84.7671
1015.000000, 79.278, -83.3353
1030.000000, 79.423, -81.9436
1044.000000, 79.557, -80.7296
1060.000000, 79.713, -79.4290
1075.000000, 79.867, -78.2504
1090.000000, 80.020, -77.1456
1106.000000, 80.183, -76.0618
1120.000000, 80.324, -75.1473
1138.000000, 80.499, -74.0211
1150.000000, 80.613, -73.3203
1172.000000, 80.819, -72.1017
1180.000000, 80.892, -71.6786
1206.000000, 81.123, -70.3632
1220.000000, 81.241, -69.6941
1241.000000, 81.414, -68.7334
1250.000000, 81.485, -68.3375
1265.000000, 81.602, -67.6941
1280.000000, 81.716, -67.0533
1315.000000, 81.971, -65.6342
1320.000000, 82.006, -65.4411
1340.000000, 82.145, -64.6829
1360.000000, 82.279, -63.9335
1380.000000, 82.407, -63.1766
1400.000000, 82.535, -62.4417
1430.000000, 82.723, -61.3489
1450.000000, 82.842, -60.6233
1475.000000, 82.988, -59.7334
1500.000000, 83.136, -58.8675
1525.000000, 83.281, -58.0199
1550.000000, 83.426, -57.1673
1575.000000, 83.569, -56.3272
1600.000000, 83.711, -55.5080
1625.000000, 83.853, -54.7166
1650.000000, 83.995, -53.9446
1675.000000, 84.140, -53.1851
1700.000000, 84.285, -52.4556
1725.000000, 84.431, -51.7645
1750.000000, 84.577, -51.0982
1775.000000, 84.723, -50.4551
1800.000000, 84.870, -49.8300
1825.000000, 85.019, -49.2449
1850.000000, 85.168, -48.6892
1875.000000, 85.315, -48.1718
1900.000000, 85.463, -47.7003
1925.000000, 85.612, -47.2649
1950.000000, 85.762, -46.8775
1975.000000, 85.910, -46.5366
2000.000000, 86.055, -46.2346
2030.000000, 86.227, -45.9183
2060.000000, 86.398, -45.6727
2090.000000, 86.567, -45.4924
2120.000000, 86.733, -45.3732
2140.000000, 86.840, -45.3338
2180.000000, 87.049, -45.3464
2200.000000, 87.150, -45.3976
2240.000000, 87.341, -45.5873
2270.000000, 87.475, -45.8011
2300.000000, 87.602, -46.0655
2330.000000, 87.721, -46.3830
2360.000000, 87.828, -46.7581
2400.000000, 87.956, -47.3463
2430.000000, 88.040, -47.8284
2470.000000, 88.133, -48.5184
2500.000000, 88.187, -49.0655
2540.000000, 88.242, -49.8219
2580.000000, 88.273, -50.5961
2620.000000, 88.283, -51.3636
2650.000000, 88.277, -51.9332
2690.000000, 88.253, -52.6729
2720.000000, 88.222, -53.2029
2760.000000, 88.165, -53.8672
2800.000000, 88.091, -54.4729
2850.000000, 87.978, -55.1407
2900.000000, 87.843, -55.6838
2950.000000, 87.692, -56.1055
3000.000000, 87.530, -56.3959
3040.000000, 87.394, -56.5425
3070.000000, 87.289, -56.6018
3110.000000, 87.145, -56.6183
3150.000000, 86.997, -56.5548
3200.000000, 86.811, -56.3701
3250.000000, 86.622, -56.0905
3300.000000, 86.434, -55.7132
3350.000000, 86.248, -55.2451
3400.000000, 86.066, -54.6883
3450.000000, 85.887, -54.0667
3500.000000, 85.710, -53.3853
3550.000000, 85.537, -52.6471
3600.000000, 85.369, -51.8478
3650.000000, 85.207, -50.9871
3700.000000, 85.051, -50.0907
3750.000000, 84.901, -49.1710
3820.000000, 84.698, -47.8310
3870.000000, 84.558, -46.8390
3950.000000, 84.344, -45.2199
4000.000000, 84.218, -44.1821
4060.000000, 84.074, -42.9451
4120.000000, 83.935, -41.6846
4180.000000, 83.802, -40.3840
4250.000000, 83.654, -38.8646
4310.000000, 83.529, -37.5566
4370.000000, 83.409, -36.2410
4440.000000, 83.280, -34.7298
4500.000000, 83.176, -33.4319
4550.000000, 83.093, -32.3515
4620.000000, 82.984, -30.8558
4680.000000, 82.893, -29.6013
4750.000000, 82.787, -28.1639
4820.000000, 82.684, -26.7505
4870.000000, 82.611, -25.7627
4940.000000, 82.506, -24.3921
5000.000000, 82.415, -23.2099
5080.000000, 82.291, -21.6216
5150.000000, 82.178, -20.2283
5220.000000, 82.070, -18.8407
5300.000000, 81.947, -17.2467
5380.000000, 81.823, -15.6210
5450.000000, 81.712, -14.2139
5520.000000, 81.598, -12.7976
5600.000000, 81.465, -11.1297
5700.000000, 81.300, -8.9602
5800.000000, 81.138, -6.7278
5900.000000, 80.983, -4.3967
6000.000000, 80.838, -1.9980
6080.000000, 80.731, -0.0367
6150.000000, 80.642, 1.7091
6220.000000, 80.557, 3.4923
6300.000000, 80.465, 5.5650
6400.000000, 80.361, 8.1693
6500.000000, 80.267, 10.8168
6600.000000, 80.174, 13.5559
6700.000000, 80.099, 16.6192
6800.000000, 80.110, 19.8795
6900.000000, 80.162, 22.5860
7000.000000, 80.185, 25.2484
7100.000000, 80.225, 28.1245
7200.000000, 80.303, 31.0862
7300.000000, 80.414, 34.0205
7400.000000, 80.556, 36.8977
7500.000000, 80.731, 39.7471
7620.000000, 80.996, 43.1307
7750.000000, 81.356, 46.6734
7880.000000, 81.798, 50.0150
8000.000000, 82.286, 52.8803
8120.000000, 82.860, 55.4499
8250.000000, 83.589, 57.7904
8380.000000, 84.446, 59.4989
8500.000000, 85.361, 60.2911
8620.000000, 86.404, 59.9712
8750.000000, 87.668, 57.8049
8850.000000, 88.693, 54.3783
9000.000000, 90.129, 45.6093
9120.000000, 90.945, 35.4408
9250.000000, 91.236, 22.4518
9380.000000, 90.821, 9.5882
9500.000000, 89.928, -0.3645
9620.000000, 88.758, -7.6650
9750.000000, 87.410, -12.6916
9880.000000, 86.133, -15.3875
10000.000000, 85.073, -16.4541
10150.000000, 83.928, -16.5613
10300.000000, 82.972, -15.8767
10440.000000, 82.223, -14.8731
10600.000000, 81.515, -13.5580
10750.000000, 80.972, -12.3722
10900.000000, 80.520, -11.4033
11060.000000, 80.113, -10.7437
11200.000000, 79.798, -10.5463
11380.000000, 79.416, -10.8562
11500.000000, 79.158, -11.4087
11720.000000, 78.620, -13.0875
11800.000000, 78.393, -13.8562
12060.000000, 77.502, -16.5731
12200.000000, 76.925, -17.9112
12410.000000, 75.941, -19.4319
12500.000000, 75.483, -19.8525
12650.000000, 74.691, -20.1699
12800.000000, 73.879, -19.9912
13150.000000, 71.956, -17.7214
13200.000000, 71.685, -17.2072
13400.000000, 70.615, -14.7460
13600.000000, 69.560, -11.7085
13800.000000, 68.495, -7.9599
14000.000000, 67.371, -2.8622
14300.000000, 65.950, 12.5721
14500.000000, 66.427, 27.7494
14750.000000, 68.125, 32.9432
15000.000000, 68.723, 29.0349
15250.000000, 68.619, 27.5573
15500.000000, 68.545, 28.6353
15750.000000, 68.737, 30.0568
16000.000000, 69.216, 30.6861
16250.000000, 69.912, 29.5491
16500.000000, 70.748, 25.5369
16750.000000, 71.522, 17.7577
17000.000000, 71.886, 6.2868
17250.000000, 71.541, -7.3540
17500.000000, 70.419, -20.7718
17750.000000, 68.663, -32.0978
18000.000000, 66.539, -41.2126
18250.000000, 64.203, -49.1192
18500.000000, 61.612, -56.9057
18750.000000, 58.594, -64.6107
19000.000000, 54.944, -70.7748
19250.000000, 50.634, -73.4792
19500.000000, 45.902, -71.1078
19750.000000, 41.236, -63.3311
