* Measurement data measured by REW V5.31.3
* Source: Input device not selected, no input selected, L, volume: no control
* Format: 256k Log Swept Sine, 1 sweep at -12.0 dBFS with no timing reference
* Dated: Jan 10, 2025 8:55:54 PM
* REW Settings:
*  C-weighting compensation: Off
*  Target level: 75.0 dB
* Note: 
* Measurement: Zenith (Stock UUUD Shall) L
* Smoothing: 1/24 octave
* Frequency Step: 1/48 octave
* Start Frequency: 20.300 Hz
*
* Freq(Hz), SPL(dB), Phase(degrees)
20.299999, 86.901, -151.7681
20.600000, 86.983, -152.3471
20.900000, 87.066, -153.1646
21.200001, 87.118, -154.1074
21.400000, 87.130, -154.7413
21.799999, 87.111, -155.8627
22.000000, 87.092, -156.3064
22.400000, 87.065, -156.9574
22.700001, 87.068, -157.3060
23.000000, 87.093, -157.6152
23.299999, 87.132, -157.9390
23.600000, 87.174, -158.3036
24.000000, 87.224, -158.8685
24.299999, 87.251, -159.3600
24.700001, 87.273, -160.1178
25.000000, 87.278, -160.7552
25.400000, 87.272, -161.6431
25.799999, 87.254, -162.4763
26.200001, 87.228, -163.1615
26.500000, 87.206, -163.5544
26.900000, 87.175, -163.9326
27.200001, 87.154, -164.1373
27.600000, 87.139, -164.3686
28.000000, 87.157, -164.6499
28.500000, 87.238, -165.2388
29.000000, 87.350, -166.1503
29.500000, 87.426, -167.1668
30.000000, 87.422, -167.9360
30.400000, 87.374, -168.2854
30.700001, 87.329, -168.4718
31.100000, 87.276, -168.7861
31.500000, 87.239, -169.3075
32.000000, 87.211, -170.1695
32.500000, 87.207, -170.9255
33.000000, 87.234, -171.3584
33.500000, 87.272, -171.6377
34.000000, 87.281, -172.0863
34.500000, 87.235, -172.8397
35.000000, 87.155, -173.7729
35.500000, 87.085, -174.6320
36.000000, 87.051, -175.1964
36.500000, 87.048, -175.4083
37.000000, 87.058, -175.4484
37.500000, 87.060, -175.6386
38.200001, 87.027, -176.4382
38.700001, 86.990, -177.1523
39.500000, 86.979, -177.8962
40.000000, 86.993, -178.1756
40.599998, 86.966, -178.5311
41.200001, 86.877, -178.8440
41.799999, 86.799, -179.0341
42.500000, 86.775, -179.2910
43.099998, 86.755, -179.6176
43.700001, 86.692, -179.9232
44.400002, 86.622, 179.6615
45.000000, 86.615, 179.0179
45.500000, 86.636, 178.2929
46.200001, 86.649, 177.3031
46.799999, 86.612, 176.6945
47.500000, 86.538, 176.3069
48.200001, 86.489, 176.1667
48.700001, 86.470, 176.1530
49.400002, 86.415, 176.2349
50.000000, 86.329, 176.3486
50.799999, 86.240, 176.1790
51.500000, 86.230, 175.5948
52.200001, 86.236, 175.1522
53.000000, 86.221, 175.1024
53.799999, 86.176, 174.7065
54.500000, 86.113, 174.0156
55.200001, 86.067, 173.7191
56.000000, 86.034, 173.7368
57.000000, 85.964, 172.6438
58.000000, 86.137, 169.8864
59.000000, 86.317, 167.3349
60.000000, 85.927, 168.6327
60.799999, 85.649, 171.4473
61.500000, 85.632, 172.1674
62.200001, 85.585, 171.5297
63.000000, 85.326, 171.4263
64.000000, 85.032, 171.4526
65.000000, 85.159, 170.1755
66.000000, 85.553, 170.1076
67.000000, 85.553, 171.0142
68.000000, 85.153, 171.3981
69.000000, 85.074, 170.5068
70.000000, 85.200, 169.5582
71.000000, 85.161, 169.8712
72.000000, 85.127, 169.3651
73.000000, 85.079, 167.7496
74.000000, 84.960, 167.4792
75.000000, 84.885, 168.0908
76.199997, 84.856, 168.0923
77.500000, 84.782, 167.9377
78.800003, 84.620, 168.7717
80.000000, 84.509, 168.9907
81.199997, 84.402, 167.7953
82.500000, 84.320, 167.1531
83.800003, 84.291, 167.4098
85.000000, 84.281, 167.2526
86.199997, 84.175, 166.6554
87.500000, 84.005, 166.4913
88.500000, 83.925, 166.4736
90.000000, 83.816, 166.3225
91.199997, 83.751, 166.4788
92.500000, 83.720, 166.8351
93.800003, 83.656, 167.1645
95.000000, 83.516, 167.6065
96.199997, 83.377, 168.1669
97.500000, 83.336, 168.8718
98.800003, 83.349, 169.8856
100.000000, 83.361, 170.7830
101.500000, 83.428, 171.6921
103.000000, 83.444, 171.8157
104.400002, 83.393, 171.3605
106.000000, 83.438, 170.9495
107.500000, 83.536, 170.6799
109.000000, 83.533, 170.6175
110.599998, 83.475, 170.1897
112.000000, 83.391, 169.6953
113.800003, 83.285, 169.1384
115.000000, 83.266, 168.8691
117.199997, 83.199, 168.6260
118.000000, 83.178, 168.5391
120.599998, 83.056, 168.3161
122.000000, 82.936, 168.4695
124.099998, 82.818, 168.6322
125.000000, 82.793, 168.7198
126.500000, 82.743, 168.9357
128.000000, 82.684, 169.2672
131.500000, 82.531, 169.4680
132.000000, 82.509, 169.4641
134.000000, 82.435, 169.4720
136.000000, 82.364, 169.4530
138.000000, 82.288, 169.6333
140.000000, 82.201, 169.9862
143.000000, 82.103, 170.2029
145.000000, 82.038, 170.2486
147.500000, 81.949, 170.4752
150.000000, 81.867, 170.7334
152.500000, 81.784, 171.1186
155.000000, 81.716, 171.4479
157.500000, 81.653, 171.6022
160.000000, 81.585, 171.7965
162.500000, 81.506, 172.0226
165.000000, 81.433, 172.3129
167.500000, 81.358, 172.6716
170.000000, 81.287, 173.0122
172.500000, 81.223, 173.3502
175.000000, 81.161, 173.6558
177.500000, 81.088, 173.9804
180.000000, 81.018, 174.3792
182.500000, 80.954, 174.7770
185.000000, 80.897, 175.1934
187.500000, 80.852, 175.6283
190.000000, 80.814, 175.9746
192.500000, 80.777, 176.2460
195.000000, 80.737, 176.5617
197.500000, 80.687, 176.8689
200.000000, 80.639, 177.1215
203.000000, 80.580, 177.4353
206.000000, 80.509, 177.7714
209.000000, 80.434, 178.1462
212.000000, 80.369, 178.5980
214.000000, 80.332, 178.8606
218.000000, 80.262, 179.3291
220.000000, 80.227, 179.6154
224.000000, 80.166, -179.7525
227.000000, 80.115, -179.2716
230.000000, 80.056, -178.7718
233.000000, 80.004, -178.3464
236.000000, 79.959, -177.9653
240.000000, 79.896, -177.4262
243.000000, 79.851, -177.0136
247.000000, 79.793, -176.4840
250.000000, 79.746, -176.0853
254.000000, 79.682, -175.4857
258.000000, 79.621, -174.8512
262.000000, 79.564, -174.2567
265.000000, 79.522, -173.8249
269.000000, 79.472, -173.2563
272.000000, 79.436, -172.8505
276.000000, 79.388, -172.2765
280.000000, 79.340, -171.7001
285.000000, 79.286, -170.9906
290.000000, 79.236, -170.2716
295.000000, 79.182, -169.5662
300.000000, 79.133, -168.8287
304.000000, 79.094, -168.2512
307.000000, 79.062, -167.8421
311.000000, 79.020, -167.2753
315.000000, 78.983, -166.7163
320.000000, 78.938, -166.0377
325.000000, 78.893, -165.3248
330.000000, 78.856, -164.6214
335.000000, 78.819, -163.9158
340.000000, 78.780, -163.2092
345.000000, 78.745, -162.4719
350.000000, 78.708, -161.7815
355.000000, 78.668, -161.0791
360.000000, 78.634, -160.3653
365.000000, 78.605, -159.6902
370.000000, 78.574, -159.0148
375.000000, 78.538, -158.3220
382.000000, 78.486, -157.3757
387.000000, 78.456, -156.7402
395.000000, 78.417, -155.7049
400.000000, 78.391, -155.0548
406.000000, 78.359, -154.3013
412.000000, 78.333, -153.5004
418.000000, 78.309, -152.6614
425.000000, 78.278, -151.7153
431.000000, 78.250, -150.9698
437.000000, 78.218, -150.2466
444.000000, 78.190, -149.3559
450.000000, 78.169, -148.5336
455.000000, 78.152, -147.8776
462.000000, 78.130, -146.9718
468.000000, 78.110, -146.2038
475.000000, 78.089, -145.3097
482.000000, 78.066, -144.3906
487.000000, 78.052, -143.7605
494.000000, 78.034, -142.9055
500.000000, 78.017, -142.1402
508.000000, 77.996, -141.1398
515.000000, 77.977, -140.3001
522.000000, 77.960, -139.4222
530.000000, 77.945, -138.4152
538.000000, 77.934, -137.4406
545.000000, 77.922, -136.6008
552.000000, 77.913, -135.7327
560.000000, 77.908, -134.7491
570.000000, 77.897, -133.5629
580.000000, 77.883, -132.3603
590.000000, 77.871, -131.1186
600.000000, 77.863, -129.9239
608.000000, 77.865, -129.0025
615.000000, 77.867, -128.1594
622.000000, 77.866, -127.2981
630.000000, 77.863, -126.3635
640.000000, 77.862, -125.1799
650.000000, 77.860, -124.0017
660.000000, 77.867, -122.8492
670.000000, 77.881, -121.6690
680.000000, 77.896, -120.4817
690.000000, 77.907, -119.2984
700.000000, 77.920, -118.1522
710.000000, 77.935, -117.0180
720.000000, 77.955, -115.8950
730.000000, 77.984, -114.8154
740.000000, 78.019, -113.7695
750.000000, 78.055, -112.7443
762.000000, 78.098, -111.5493
775.000000, 78.145, -110.4133
788.000000, 78.179, -109.4760
800.000000, 78.169, -108.7850
812.000000, 78.088, -108.0331
825.000000, 77.946, -106.5069
838.000000, 77.853, -104.1857
850.000000, 77.863, -101.9410
862.000000, 77.938, -99.9219
875.000000, 78.046, -98.0346
885.000000, 78.129, -96.7437
900.000000, 78.249, -94.9481
912.000000, 78.342, -93.5854
925.000000, 78.447, -92.1524
938.000000, 78.555, -90.7879
950.000000, 78.653, -89.5545
962.000000, 78.746, -88.3488
975.000000, 78.847, -87.0792
988.000000, 78.956, -85.8071
1000.000000, 79.057, -84.6750
1015.000000, 79.181, -83.3248
1030.000000, 79.317, -82.0315
1044.000000, 79.445, -80.8763
1060.000000, 79.588, -79.5795
1075.000000, 79.727, -78.4066
1090.000000, 79.865, -77.3089
1106.000000, 80.009, -76.2193
1120.000000, 80.133, -75.3070
1138.000000, 80.292, -74.1740
1150.000000, 80.397, -73.4464
1172.000000, 80.583, -72.1625
1180.000000, 80.650, -71.7131
1206.000000, 80.858, -70.3408
1220.000000, 80.962, -69.6258
1241.000000, 81.114, -68.5843
1250.000000, 81.179, -68.1508
1265.000000, 81.285, -67.4460
1280.000000, 81.386, -66.7592
1315.000000, 81.614, -65.1676
1320.000000, 81.646, -64.9424
1340.000000, 81.773, -64.0564
1360.000000, 81.893, -63.2110
1380.000000, 82.014, -62.3703
1400.000000, 82.133, -61.5162
1430.000000, 82.305, -60.2487
1450.000000, 82.417, -59.4313
1475.000000, 82.560, -58.4179
1500.000000, 82.700, -57.4283
1525.000000, 82.838, -56.4340
1550.000000, 82.976, -55.4538
1575.000000, 83.114, -54.5004
1600.000000, 83.253, -53.5697
1625.000000, 83.393, -52.6663
1650.000000, 83.534, -51.7791
1675.000000, 83.674, -50.9089
1700.000000, 83.815, -50.0675
1725.000000, 83.954, -49.2626
1750.000000, 84.092, -48.4833
1775.000000, 84.232, -47.7227
1800.000000, 84.372, -46.9857
1825.000000, 84.511, -46.2709
1850.000000, 84.652, -45.5769
1875.000000, 84.796, -44.8979
1900.000000, 84.944, -44.2367
1925.000000, 85.098, -43.6140
1950.000000, 85.257, -43.0636
1975.000000, 85.420, -42.6033
2000.000000, 85.579, -42.2385
2030.000000, 85.760, -41.8819
2060.000000, 85.931, -41.5951
2090.000000, 86.095, -41.3903
2120.000000, 86.251, -41.2323
2140.000000, 86.351, -41.1386
2180.000000, 86.539, -41.0120
2200.000000, 86.629, -40.9878
2240.000000, 86.803, -40.9894
2270.000000, 86.929, -41.0249
2300.000000, 87.050, -41.1135
2330.000000, 87.163, -41.2639
2360.000000, 87.266, -41.4775
2400.000000, 87.388, -41.8529
2430.000000, 87.462, -42.1954
2470.000000, 87.541, -42.6856
2500.000000, 87.586, -43.0602
2540.000000, 87.626, -43.5721
2580.000000, 87.645, -44.0578
2620.000000, 87.643, -44.5209
2650.000000, 87.629, -44.8489
2690.000000, 87.596, -45.2342
2720.000000, 87.558, -45.4725
2760.000000, 87.496, -45.7085
2800.000000, 87.421, -45.8655
2850.000000, 87.315, -45.9449
2900.000000, 87.199, -45.8810
2950.000000, 87.075, -45.6893
3000.000000, 86.948, -45.3557
3040.000000, 86.848, -44.9596
3070.000000, 86.777, -44.5982
3110.000000, 86.693, -44.0526
3150.000000, 86.627, -43.4955
3200.000000, 86.557, -42.8965
3250.000000, 86.485, -42.4309
3300.000000, 86.395, -42.0249
3350.000000, 86.283, -41.5890
3400.000000, 86.160, -41.0414
3450.000000, 86.028, -40.3887
3500.000000, 85.895, -39.6208
3550.000000, 85.767, -38.7480
3600.000000, 85.645, -37.7894
3650.000000, 85.533, -36.7604
3700.000000, 85.431, -35.6901
3750.000000, 85.339, -34.6213
3820.000000, 85.225, -33.1248
3870.000000, 85.146, -32.0292
3950.000000, 85.029, -30.2438
4000.000000, 84.961, -29.1149
4060.000000, 84.890, -27.7570
4120.000000, 84.829, -26.3927
4180.000000, 84.772, -25.0586
4250.000000, 84.716, -23.5384
4310.000000, 84.667, -22.2723
4370.000000, 84.617, -21.0241
4440.000000, 84.563, -19.5428
4500.000000, 84.518, -18.2578
4550.000000, 84.485, -17.1821
4620.000000, 84.445, -15.6702
4680.000000, 84.415, -14.3908
4750.000000, 84.386, -12.9049
4820.000000, 84.362, -11.4346
4870.000000, 84.346, -10.3984
4940.000000, 84.324, -8.9610
5000.000000, 84.309, -7.7462
5080.000000, 84.292, -6.1446
5150.000000, 84.277, -4.7503
5220.000000, 84.263, -3.3425
5300.000000, 84.251, -1.6920
5380.000000, 84.251, 0.0109
5450.000000, 84.260, 1.5279
5520.000000, 84.277, 3.0493
5600.000000, 84.310, 4.7802
5700.000000, 84.377, 6.9181
5800.000000, 84.470, 9.0301
5900.000000, 84.588, 11.0772
6000.000000, 84.730, 13.0431
6080.000000, 84.863, 14.5537
6150.000000, 84.997, 15.8321
6220.000000, 85.147, 17.0596
6300.000000, 85.341, 18.3785
6400.000000, 85.625, 19.8550
6500.000000, 85.950, 21.0645
6600.000000, 86.312, 21.9866
6700.000000, 86.736, 22.6911
6800.000000, 87.267, 22.7275
6900.000000, 87.814, 21.5345
7000.000000, 88.331, 19.4683
7100.000000, 88.819, 16.4444
7200.000000, 89.233, 12.2810
7300.000000, 89.507, 6.9964
7400.000000, 89.571, 0.8690
7500.000000, 89.379, -5.5812
7620.000000, 88.810, -12.9062
7750.000000, 87.857, -19.3722
7880.000000, 86.694, -23.8106
8000.000000, 85.554, -26.0924
8120.000000, 84.433, -26.8912
8250.000000, 83.287, -26.4980
8380.000000, 82.225, -25.1440
8500.000000, 81.324, -23.2117
8620.000000, 80.504, -20.7670
8750.000000, 79.715, -17.6927
8850.000000, 79.170, -15.1172
9000.000000, 78.443, -11.0067
9120.000000, 77.940, -7.5538
9250.000000, 77.474, -3.7705
9380.000000, 77.083, 0.0262
9500.000000, 76.781, 3.5565
9620.000000, 76.539, 7.0411
9750.000000, 76.337, 10.7595
9880.000000, 76.196, 14.3970
10000.000000, 76.125, 17.5929
10150.000000, 76.113, 21.2669
10300.000000, 76.168, 24.6175
10440.000000, 76.275, 27.4051
10600.000000, 76.458, 30.0524
10750.000000, 76.683, 31.9392
10900.000000, 76.931, 33.1568
11060.000000, 77.193, 33.7115
11200.000000, 77.400, 33.5376
11380.000000, 77.589, 32.4057
11500.000000, 77.643, 31.2279
11720.000000, 77.553, 28.6780
11800.000000, 77.458, 27.7522
12060.000000, 76.960, 25.3208
12200.000000, 76.606, 24.5799
12410.000000, 76.033, 24.4669
12500.000000, 75.788, 24.7818
12650.000000, 75.395, 25.7323
12800.000000, 75.043, 27.1283
13150.000000, 74.506, 31.6699
13200.000000, 74.469, 32.4112
13400.000000, 74.436, 35.3719
13600.000000, 74.593, 38.1187
13800.000000, 74.946, 40.2578
14000.000000, 75.508, 41.4874
14300.000000, 76.993, 40.8871
14500.000000, 78.435, 35.3947
14750.000000, 79.717, 19.6525
15000.000000, 79.474, -0.8631
15250.000000, 77.725, -18.2329
15500.000000, 75.256, -28.5242
15750.000000, 72.833, -32.7018
16000.000000, 70.811, -33.3943
16250.000000, 69.192, -32.7412
16500.000000, 67.881, -31.7907
16750.000000, 66.798, -31.4752
17000.000000, 65.813, -32.2900
17250.000000, 64.771, -34.2700
17500.000000, 63.556, -37.3314
17750.000000, 62.063, -40.7924
18000.000000, 60.267, -43.9717
18250.000000, 58.148, -46.8775
18500.000000, 55.722, -49.5064
18750.000000, 52.916, -51.4905
19000.000000, 49.639, -51.7516
19250.000000, 46.005, -48.2257
19500.000000, 42.393, -40.0416
19750.000000, 39.630, -27.7296
