* Measurement data measured by REW V5.31.3
* Source: Input device not selected, no input selected, L, volume: no control
* Format: 256k Log Swept Sine, 1 sweep at -12.0 dBFS with no timing reference
* Dated: Sep 2, 2024 2:04:45 PM
* REW Settings:
*  C-weighting compensation: Off
*  Target level: 75.0 dB
* Note: ; 
* Measurement: Zero Red 10ohm (Spring L) L
* Smoothing: 1/24 octave
* Frequency Step: 1/48 octave
* Start Frequency: 20.300 Hz
*
* Freq(Hz), SPL(dB), Phase(degrees)
20.299999, 81.812, -150.1912
20.600000, 81.822, -150.7356
20.900000, 81.846, -151.2320
21.200001, 81.890, -151.6594
21.400000, 81.930, -151.9310
21.799999, 82.017, -152.4960
22.000000, 82.055, -152.7970
22.400000, 82.106, -153.4125
22.700001, 82.118, -153.8572
23.000000, 82.116, -154.2801
23.299999, 82.111, -154.7061
23.600000, 82.112, -155.1811
24.000000, 82.131, -155.9630
24.299999, 82.156, -156.6733
24.700001, 82.192, -157.7206
25.000000, 82.216, -158.5006
25.400000, 82.239, -159.4180
25.799999, 82.253, -160.1309
26.200001, 82.264, -160.6566
26.500000, 82.271, -160.9765
26.900000, 82.279, -161.3828
27.200001, 82.284, -161.7177
27.600000, 82.289, -162.2460
28.000000, 82.292, -162.8750
28.500000, 82.291, -163.7425
29.000000, 82.288, -164.5652
29.500000, 82.292, -165.2261
30.000000, 82.312, -165.7410
30.400000, 82.337, -166.1341
30.700001, 82.353, -166.4613
31.100000, 82.365, -166.9538
31.500000, 82.359, -167.4810
32.000000, 82.337, -168.1090
32.500000, 82.321, -168.6542
33.000000, 82.323, -169.1494
33.500000, 82.339, -169.6596
34.000000, 82.349, -170.2103
34.500000, 82.340, -170.7820
35.000000, 82.312, -171.3422
35.500000, 82.277, -171.8655
36.000000, 82.250, -172.3364
36.500000, 82.242, -172.7630
37.000000, 82.255, -173.1940
37.500000, 82.278, -173.7031
38.200001, 82.295, -174.6090
38.700001, 82.280, -175.3100
39.500000, 82.224, -176.2033
40.000000, 82.192, -176.5310
40.599998, 82.167, -176.7848
41.200001, 82.146, -177.0529
41.799999, 82.120, -177.4377
42.500000, 82.094, -178.0571
43.099998, 82.079, -178.6909
43.700001, 82.062, -179.3090
44.400002, 82.031, -179.8435
45.000000, 82.004, 179.8690
45.500000, 81.988, 179.6581
46.200001, 81.971, 179.2704
46.799999, 81.950, 178.8391
47.500000, 81.919, 178.2724
48.200001, 81.884, 177.6846
48.700001, 81.860, 177.2986
49.400002, 81.830, 176.8763
50.000000, 81.809, 176.6086
50.799999, 81.778, 176.2212
51.500000, 81.743, 175.7590
52.200001, 81.708, 175.2400
53.000000, 81.677, 174.7131
53.799999, 81.646, 174.2969
54.500000, 81.606, 173.9468
55.200001, 81.559, 173.5374
56.000000, 81.509, 173.0227
57.000000, 81.457, 172.4367
58.000000, 81.411, 172.0081
59.000000, 81.390, 171.6588
60.000000, 81.348, 171.2319
60.799999, 81.275, 170.9256
61.500000, 81.220, 170.5847
62.200001, 81.179, 170.0546
63.000000, 81.125, 169.4548
64.000000, 81.053, 169.1395
65.000000, 81.007, 168.8637
66.000000, 80.957, 168.3794
67.000000, 80.887, 168.0739
68.000000, 80.814, 167.9095
69.000000, 80.756, 167.5258
70.000000, 80.708, 167.0823
71.000000, 80.664, 166.8061
72.000000, 80.611, 166.5588
73.000000, 80.538, 166.2134
74.000000, 80.442, 165.9585
75.000000, 80.372, 165.8383
76.199997, 80.321, 165.3904
77.500000, 80.237, 164.8842
78.800003, 80.146, 164.4504
80.000000, 80.056, 164.1008
81.199997, 79.976, 163.8462
82.500000, 79.899, 163.5404
83.800003, 79.819, 163.1663
85.000000, 79.744, 162.9438
86.199997, 79.670, 162.7792
87.500000, 79.581, 162.5952
88.500000, 79.507, 162.4381
90.000000, 79.385, 162.1654
91.199997, 79.306, 161.9656
92.500000, 79.231, 161.8734
93.800003, 79.139, 161.8033
95.000000, 79.048, 161.6518
96.199997, 78.974, 161.4843
97.500000, 78.895, 161.3263
98.800003, 78.817, 161.1845
100.000000, 78.739, 161.0095
101.500000, 78.631, 160.8949
103.000000, 78.507, 160.8658
104.400002, 78.401, 160.8512
106.000000, 78.293, 160.7185
107.500000, 78.182, 160.5510
109.000000, 78.081, 160.5893
110.599998, 77.993, 160.6412
112.000000, 77.902, 160.6345
113.800003, 77.786, 160.6692
115.000000, 77.704, 160.6545
117.199997, 77.554, 160.6854
118.000000, 77.520, 160.8547
120.599998, 77.380, 161.2548
122.000000, 77.257, 161.3048
124.099998, 77.092, 161.5043
125.000000, 77.033, 161.5721
126.500000, 76.930, 161.5911
128.000000, 76.827, 161.7674
131.500000, 76.615, 162.5286
132.000000, 76.587, 162.5958
134.000000, 76.480, 162.7695
136.000000, 76.354, 162.9693
138.000000, 76.246, 163.3302
140.000000, 76.148, 163.7059
143.000000, 75.988, 164.3690
145.000000, 75.870, 164.7332
147.500000, 75.741, 165.2717
150.000000, 75.619, 166.1131
152.500000, 75.505, 166.7426
155.000000, 75.383, 167.2988
157.500000, 75.287, 167.9820
160.000000, 75.204, 168.7029
162.500000, 75.106, 169.3632
165.000000, 75.003, 170.0708
167.500000, 74.899, 170.6967
170.000000, 74.808, 171.3171
172.500000, 74.726, 172.0808
175.000000, 74.646, 172.7071
177.500000, 74.577, 173.3520
180.000000, 74.517, 174.2120
182.500000, 74.440, 174.9504
185.000000, 74.377, 175.7473
187.500000, 74.349, 176.5904
190.000000, 74.320, 177.4147
192.500000, 74.276, 178.1752
195.000000, 74.243, 178.8831
197.500000, 74.208, 179.5727
200.000000, 74.171, -179.7690
203.000000, 74.138, -178.9359
206.000000, 74.108, -178.1628
209.000000, 74.080, -177.4017
212.000000, 74.067, -176.6519
214.000000, 74.067, -176.1684
218.000000, 74.048, -175.1406
220.000000, 74.026, -174.6345
224.000000, 74.021, -173.7333
227.000000, 74.043, -173.1422
230.000000, 74.031, -172.3655
233.000000, 73.990, -171.6718
236.000000, 73.990, -171.1813
240.000000, 74.005, -170.4689
243.000000, 73.997, -169.9016
247.000000, 73.967, -169.1388
250.000000, 73.950, -168.5777
254.000000, 73.972, -167.9547
258.000000, 73.980, -167.2766
262.000000, 73.953, -166.5955
265.000000, 73.952, -166.1375
269.000000, 73.969, -165.4489
272.000000, 73.971, -164.9100
276.000000, 73.956, -164.2772
280.000000, 73.941, -163.6907
285.000000, 73.904, -162.6203
290.000000, 73.876, -161.6268
295.000000, 73.861, -160.5549
300.000000, 73.860, -159.2387
304.000000, 73.889, -158.0428
307.000000, 73.944, -157.1962
311.000000, 74.053, -156.3121
315.000000, 74.180, -155.7423
320.000000, 74.324, -155.2550
325.000000, 74.437, -155.1439
330.000000, 74.494, -155.1367
335.000000, 74.528, -155.0225
340.000000, 74.551, -154.9500
345.000000, 74.558, -154.8371
350.000000, 74.581, -154.5730
355.000000, 74.598, -154.3578
360.000000, 74.612, -154.0804
365.000000, 74.612, -153.8160
370.000000, 74.595, -153.4623
375.000000, 74.585, -153.1090
382.000000, 74.584, -152.5559
387.000000, 74.584, -152.1303
395.000000, 74.558, -151.6788
400.000000, 74.547, -151.3855
406.000000, 74.543, -150.9480
412.000000, 74.535, -150.4792
418.000000, 74.521, -149.9364
425.000000, 74.502, -149.3712
431.000000, 74.476, -148.9734
437.000000, 74.449, -148.4928
444.000000, 74.421, -147.9514
450.000000, 74.407, -147.5327
455.000000, 74.397, -147.1438
462.000000, 74.374, -146.6005
468.000000, 74.354, -146.1593
475.000000, 74.338, -145.5175
482.000000, 74.321, -144.8972
487.000000, 74.298, -144.5223
494.000000, 74.272, -144.0678
500.000000, 74.266, -143.6443
508.000000, 74.252, -142.9809
515.000000, 74.221, -142.3314
522.000000, 74.202, -141.6944
530.000000, 74.193, -140.9738
538.000000, 74.172, -140.3301
545.000000, 74.145, -139.7996
552.000000, 74.121, -139.2374
560.000000, 74.105, -138.5927
570.000000, 74.089, -137.6265
580.000000, 74.063, -136.6148
590.000000, 74.034, -135.7218
600.000000, 74.009, -134.9045
608.000000, 73.988, -134.1922
615.000000, 73.971, -133.5334
622.000000, 73.953, -132.9113
630.000000, 73.941, -132.2120
640.000000, 73.928, -131.3313
650.000000, 73.920, -130.4179
660.000000, 73.901, -129.4902
670.000000, 73.876, -128.5914
680.000000, 73.848, -127.6942
690.000000, 73.835, -126.8017
700.000000, 73.839, -125.9518
710.000000, 73.836, -125.0369
720.000000, 73.820, -123.9958
730.000000, 73.802, -123.0372
740.000000, 73.786, -122.0951
750.000000, 73.782, -121.1564
762.000000, 73.786, -120.0277
775.000000, 73.797, -118.7296
788.000000, 73.790, -117.5193
800.000000, 73.808, -116.3818
812.000000, 73.822, -115.2187
825.000000, 73.828, -114.0726
838.000000, 73.852, -112.9659
850.000000, 73.873, -111.8910
862.000000, 73.891, -110.7256
875.000000, 73.905, -109.4474
885.000000, 73.913, -108.4689
900.000000, 73.935, -106.9677
912.000000, 73.973, -105.7755
925.000000, 74.020, -104.5165
938.000000, 74.063, -103.2425
950.000000, 74.114, -102.0874
962.000000, 74.179, -101.0811
975.000000, 74.253, -99.9561
988.000000, 74.330, -98.6824
1000.000000, 74.403, -97.5848
1015.000000, 74.486, -96.4841
1030.000000, 74.572, -95.3930
1044.000000, 74.656, -94.3326
1060.000000, 74.760, -93.1821
1075.000000, 74.858, -92.2403
1090.000000, 74.949, -91.2618
1106.000000, 75.045, -90.2046
1120.000000, 75.133, -89.3330
1138.000000, 75.241, -88.2549
1150.000000, 75.311, -87.5556
1172.000000, 75.430, -86.4152
1180.000000, 75.472, -86.0019
1206.000000, 75.611, -84.7029
1220.000000, 75.686, -84.0421
1241.000000, 75.788, -82.9487
1250.000000, 75.833, -82.4519
1265.000000, 75.909, -81.6469
1280.000000, 75.981, -80.9408
1315.000000, 76.146, -79.3432
1320.000000, 76.169, -79.1376
1340.000000, 76.258, -78.2811
1360.000000, 76.352, -77.2629
1380.000000, 76.455, -76.2413
1400.000000, 76.559, -75.3683
1430.000000, 76.722, -74.1525
1450.000000, 76.841, -73.3206
1475.000000, 76.975, -72.4659
1500.000000, 77.100, -71.6365
1525.000000, 77.222, -70.8981
1550.000000, 77.339, -70.2406
1575.000000, 77.444, -69.6107
1600.000000, 77.532, -68.9963
1625.000000, 77.616, -68.3642
1650.000000, 77.705, -67.7188
1675.000000, 77.784, -67.0437
1700.000000, 77.855, -66.3688
1725.000000, 77.923, -65.7120
1750.000000, 77.993, -65.0523
1775.000000, 78.054, -64.3618
1800.000000, 78.113, -63.6482
1825.000000, 78.180, -62.9250
1850.000000, 78.249, -62.2347
1875.000000, 78.319, -61.5442
1900.000000, 78.387, -60.8603
1925.000000, 78.455, -60.1816
1950.000000, 78.528, -59.5144
1975.000000, 78.608, -58.8217
2000.000000, 78.690, -58.1094
2030.000000, 78.776, -57.3576
2060.000000, 78.864, -56.6550
2090.000000, 78.958, -55.9300
2120.000000, 79.053, -55.2560
2140.000000, 79.118, -54.8294
2180.000000, 79.242, -53.9807
2200.000000, 79.305, -53.5612
2240.000000, 79.438, -52.8261
2270.000000, 79.536, -52.3210
2300.000000, 79.629, -51.8224
2330.000000, 79.719, -51.3291
2360.000000, 79.820, -50.8877
2400.000000, 79.948, -50.4227
2430.000000, 80.044, -50.0992
2470.000000, 80.169, -49.6800
2500.000000, 80.255, -49.4037
2540.000000, 80.364, -49.0689
2580.000000, 80.467, -48.8006
2620.000000, 80.562, -48.6226
2650.000000, 80.634, -48.5035
2690.000000, 80.727, -48.4096
2720.000000, 80.793, -48.4119
2760.000000, 80.872, -48.4075
2800.000000, 80.941, -48.3945
2850.000000, 81.009, -48.5510
2900.000000, 81.070, -48.7511
2950.000000, 81.117, -48.9592
3000.000000, 81.149, -49.2250
3040.000000, 81.159, -49.4495
3070.000000, 81.156, -49.6112
3110.000000, 81.145, -49.8672
3150.000000, 81.126, -50.1654
3200.000000, 81.080, -50.4824
3250.000000, 81.018, -50.7089
3300.000000, 80.947, -50.8838
3350.000000, 80.869, -51.0345
3400.000000, 80.780, -51.1490
3450.000000, 80.679, -51.2338
3500.000000, 80.574, -51.2600
3550.000000, 80.466, -51.2090
3600.000000, 80.345, -51.1381
3650.000000, 80.215, -51.0216
3700.000000, 80.086, -50.8540
3750.000000, 79.951, -50.6041
3820.000000, 79.761, -50.1184
3870.000000, 79.623, -49.7237
3950.000000, 79.385, -49.0211
4000.000000, 79.242, -48.5282
4060.000000, 79.074, -47.8130
4120.000000, 78.911, -47.0342
4180.000000, 78.746, -46.2367
4250.000000, 78.565, -45.2382
4310.000000, 78.411, -44.3437
4370.000000, 78.257, -43.4182
4440.000000, 78.077, -42.3493
4500.000000, 77.925, -41.4214
4550.000000, 77.801, -40.5833
4620.000000, 77.631, -39.3252
4680.000000, 77.490, -38.2099
4750.000000, 77.335, -36.9406
4820.000000, 77.182, -35.6624
4870.000000, 77.071, -34.6551
4940.000000, 76.922, -33.1847
5000.000000, 76.808, -31.9481
5080.000000, 76.654, -30.3215
5150.000000, 76.522, -28.8250
5220.000000, 76.403, -27.3314
5300.000000, 76.264, -25.6067
5380.000000, 76.137, -23.8349
5450.000000, 76.040, -22.2616
5520.000000, 75.942, -20.6771
5600.000000, 75.833, -18.8216
5700.000000, 75.726, -16.4871
5800.000000, 75.635, -14.1434
5900.000000, 75.560, -11.7606
6000.000000, 75.493, -9.2873
6080.000000, 75.458, -7.2994
6150.000000, 75.437, -5.5956
6220.000000, 75.430, -3.9027
6300.000000, 75.438, -1.9392
6400.000000, 75.469, 0.4307
6500.000000, 75.523, 2.7527
6600.000000, 75.607, 5.0104
6700.000000, 75.718, 7.1508
6800.000000, 75.866, 9.2312
6900.000000, 76.050, 11.1886
7000.000000, 76.272, 12.9154
7100.000000, 76.525, 14.3709
7200.000000, 76.813, 15.5779
7300.000000, 77.126, 16.4720
7400.000000, 77.453, 16.9426
7500.000000, 77.787, 17.0733
7620.000000, 78.183, 16.7949
7750.000000, 78.612, 16.0435
7880.000000, 79.077, 14.8771
8000.000000, 79.582, 13.2910
8120.000000, 80.190, 10.6592
8250.000000, 80.910, 5.6592
8380.000000, 81.501, -2.3609
8500.000000, 81.675, -12.1154
8620.000000, 81.307, -22.7395
8750.000000, 80.301, -33.1049
8850.000000, 79.223, -39.2390
9000.000000, 77.395, -45.0228
9120.000000, 75.917, -47.1019
9250.000000, 74.417, -47.4684
9380.000000, 73.057, -46.4070
9500.000000, 71.921, -44.5379
9620.000000, 70.885, -42.2350
9750.000000, 69.861, -39.4429
9880.000000, 68.926, -36.2361
10000.000000, 68.128, -32.9908
10150.000000, 67.256, -28.9780
10300.000000, 66.472, -24.9021
10440.000000, 65.835, -20.7728
10600.000000, 65.150, -15.9171
10750.000000, 64.563, -11.4244
10900.000000, 64.026, -6.8937
11060.000000, 63.531, -2.0020
11200.000000, 63.119, 2.4191
11380.000000, 62.681, 8.2202
11500.000000, 62.445, 12.0133
11720.000000, 62.036, 18.7343
11800.000000, 61.910, 21.1028
12060.000000, 61.545, 29.1303
12200.000000, 61.373, 33.0505
12410.000000, 61.158, 39.2185
12500.000000, 61.116, 42.2851
12650.000000, 61.067, 47.4532
12800.000000, 61.060, 52.3152
13150.000000, 61.293, 62.9224
13200.000000, 61.360, 64.4869
13400.000000, 61.712, 70.4466
13600.000000, 62.143, 75.7449
13800.000000, 62.644, 80.5233
14000.000000, 63.254, 84.6828
14300.000000, 64.349, 90.0472
14500.000000, 65.170, 92.5539
14750.000000, 66.289, 94.7419
15000.000000, 67.601, 95.9758
15250.000000, 69.157, 95.4694
15500.000000, 70.982, 92.6166
15750.000000, 73.023, 85.4279
16000.000000, 74.930, 72.2911
16250.000000, 76.089, 53.4033
16500.000000, 75.999, 32.1050
16750.000000, 74.730, 13.3436
17000.000000, 72.824, -0.1211
17250.000000, 70.807, -8.8117
17500.000000, 68.944, -14.4821
17750.000000, 67.279, -18.2536
18000.000000, 65.729, -20.8543
18250.000000, 64.217, -22.6992
18500.000000, 62.725, -23.9834
18750.000000, 61.217, -24.8198
19000.000000, 59.712, -25.6028
19250.000000, 58.245, -26.0573
19500.000000, 56.787, -25.3465
19750.000000, 55.388, -23.5688
20000.000000, 54.552, -21.5286
