* Measurement data measured by REW V5.31.3
* Source: Input device not selected, no input selected, L, volume: no control
* Format: 256k Log Swept Sine, 1 sweep at -12.0 dBFS with no timing reference
* Dated: Dec 6, 2024 5:59:15 PM
* REW Settings:
*  C-weighting compensation: Off
*  Target level: 75.0 dB
* Note: 
* Measurement: Zero Red (Velvet M) L
* Smoothing: 1/24 octave
* Frequency Step: 1/48 octave
* Start Frequency: 20.300 Hz
*
* Freq(Hz), SPL(dB), Phase(degrees)
20.299999, 78.512, -142.5753
20.600000, 78.511, -143.0970
20.900000, 78.531, -143.5901
21.200001, 78.581, -143.9994
21.400000, 78.630, -144.2548
21.799999, 78.743, -144.8241
22.000000, 78.796, -145.1659
22.400000, 78.869, -145.9853
22.700001, 78.889, -146.6767
23.000000, 78.886, -147.3762
23.299999, 78.875, -148.0411
23.600000, 78.875, -148.6554
24.000000, 78.914, -149.4220
24.299999, 78.974, -149.9935
24.700001, 79.077, -150.7795
25.000000, 79.149, -151.3696
25.400000, 79.216, -152.0915
25.799999, 79.241, -152.6694
26.200001, 79.235, -153.0931
26.500000, 79.223, -153.3532
26.900000, 79.213, -153.7222
27.200001, 79.214, -154.0725
27.600000, 79.223, -154.6663
28.000000, 79.236, -155.3630
28.500000, 79.250, -156.2417
29.000000, 79.270, -157.0006
29.500000, 79.305, -157.6258
30.000000, 79.352, -158.1936
30.400000, 79.389, -158.6525
30.700001, 79.408, -159.0025
31.100000, 79.419, -159.4634
31.500000, 79.413, -159.8996
32.000000, 79.391, -160.4115
32.500000, 79.375, -160.9348
33.000000, 79.375, -161.5258
33.500000, 79.391, -162.1751
34.000000, 79.410, -162.7995
34.500000, 79.425, -163.3156
35.000000, 79.434, -163.7157
35.500000, 79.439, -164.0650
36.000000, 79.441, -164.4340
36.500000, 79.445, -164.8530
37.000000, 79.452, -165.3197
37.500000, 79.461, -165.8225
38.200001, 79.464, -166.5451
38.700001, 79.457, -167.0309
39.500000, 79.447, -167.7241
40.000000, 79.445, -168.1385
40.599998, 79.444, -168.6416
41.200001, 79.437, -169.1389
41.799999, 79.432, -169.6316
42.500000, 79.433, -170.2252
43.099998, 79.429, -170.7253
43.700001, 79.411, -171.1646
44.400002, 79.374, -171.6189
45.000000, 79.344, -172.0550
45.500000, 79.327, -172.4927
46.200001, 79.316, -173.1295
46.799999, 79.313, -173.5475
47.500000, 79.314, -173.8584
48.200001, 79.312, -174.2166
48.700001, 79.299, -174.5967
49.400002, 79.260, -175.1613
50.000000, 79.228, -175.5025
50.799999, 79.209, -175.8260
51.500000, 79.199, -176.1872
52.200001, 79.183, -176.5968
53.000000, 79.180, -177.0449
53.799999, 79.176, -177.5282
54.500000, 79.138, -177.9452
55.200001, 79.083, -178.2994
56.000000, 79.036, -178.6644
57.000000, 79.004, -179.1472
58.000000, 78.950, -179.6933
59.000000, 78.880, 179.8634
60.000000, 78.868, 179.4931
60.799999, 78.865, 179.0901
61.500000, 78.835, 178.7731
62.200001, 78.801, 178.5386
63.000000, 78.775, 178.2318
64.000000, 78.725, 177.7692
65.000000, 78.653, 177.3926
66.000000, 78.593, 176.9992
67.000000, 78.551, 176.5821
68.000000, 78.525, 176.2075
69.000000, 78.491, 175.8881
70.000000, 78.435, 175.6376
71.000000, 78.370, 175.3199
72.000000, 78.315, 174.9530
73.000000, 78.280, 174.6241
74.000000, 78.230, 174.2992
75.000000, 78.166, 174.0055
76.199997, 78.105, 173.6982
77.500000, 78.034, 173.4372
78.800003, 77.959, 173.2185
80.000000, 77.905, 172.8990
81.199997, 77.837, 172.5171
82.500000, 77.758, 172.2644
83.800003, 77.697, 172.0313
85.000000, 77.640, 171.7177
86.199997, 77.570, 171.4975
87.500000, 77.496, 171.2889
88.500000, 77.438, 171.0260
90.000000, 77.343, 170.8095
91.199997, 77.270, 170.7183
92.500000, 77.193, 170.6204
93.800003, 77.121, 170.4730
95.000000, 77.055, 170.3138
96.199997, 76.992, 170.1829
97.500000, 76.922, 170.0141
98.800003, 76.851, 169.8122
100.000000, 76.781, 169.6779
101.500000, 76.678, 169.6748
103.000000, 76.576, 169.6830
104.400002, 76.488, 169.6071
106.000000, 76.396, 169.5710
107.500000, 76.322, 169.5462
109.000000, 76.251, 169.4193
110.599998, 76.139, 169.3864
112.000000, 76.040, 169.5637
113.800003, 75.946, 169.7756
115.000000, 75.880, 169.8568
117.199997, 75.733, 169.8745
118.000000, 75.687, 169.8530
120.599998, 75.540, 169.9604
122.000000, 75.467, 170.1467
124.099998, 75.353, 170.4351
125.000000, 75.301, 170.5449
126.500000, 75.212, 170.7375
128.000000, 75.127, 170.9628
131.500000, 74.923, 171.5433
132.000000, 74.892, 171.6363
134.000000, 74.766, 172.0517
136.000000, 74.671, 172.3861
138.000000, 74.583, 172.6527
140.000000, 74.489, 172.9812
143.000000, 74.373, 173.4955
145.000000, 74.282, 174.0301
147.500000, 74.163, 174.6594
150.000000, 74.019, 175.3893
152.500000, 73.905, 176.0943
155.000000, 73.814, 176.9008
157.500000, 73.716, 177.6045
160.000000, 73.646, 178.2354
162.500000, 73.574, 178.9423
165.000000, 73.496, 179.7086
167.500000, 73.428, -179.4617
170.000000, 73.343, -178.7285
172.500000, 73.260, -178.0723
175.000000, 73.230, -177.2828
177.500000, 73.197, -176.2150
180.000000, 73.154, -175.2401
182.500000, 73.106, -174.6977
185.000000, 73.077, -174.0073
187.500000, 73.056, -173.1886
190.000000, 73.019, -172.4418
192.500000, 72.998, -171.5486
195.000000, 72.985, -170.7538
197.500000, 72.977, -169.9731
200.000000, 72.972, -169.2316
203.000000, 72.956, -168.4417
206.000000, 72.933, -167.6017
209.000000, 72.910, -166.8290
212.000000, 72.909, -166.0337
214.000000, 72.930, -165.4694
218.000000, 72.992, -164.2715
220.000000, 73.012, -163.6518
224.000000, 73.047, -162.2242
227.000000, 73.086, -161.5930
230.000000, 73.135, -161.1478
233.000000, 73.148, -160.6878
236.000000, 73.160, -160.0733
240.000000, 73.171, -159.3321
243.000000, 73.198, -158.6595
247.000000, 73.265, -157.7868
250.000000, 73.329, -157.4398
254.000000, 73.379, -156.8865
258.000000, 73.414, -155.9874
262.000000, 73.451, -155.3016
265.000000, 73.473, -154.8982
269.000000, 73.511, -154.4204
272.000000, 73.552, -154.0110
276.000000, 73.615, -153.4242
280.000000, 73.672, -152.8801
285.000000, 73.716, -152.3562
290.000000, 73.756, -151.8951
295.000000, 73.771, -151.4253
300.000000, 73.840, -150.8786
304.000000, 73.894, -150.4339
307.000000, 73.926, -150.1854
311.000000, 73.962, -149.8826
315.000000, 73.996, -149.5458
320.000000, 74.041, -149.1070
325.000000, 74.086, -148.7130
330.000000, 74.129, -148.2555
335.000000, 74.167, -147.8826
340.000000, 74.196, -147.4951
345.000000, 74.229, -147.0157
350.000000, 74.266, -146.6912
355.000000, 74.284, -146.5263
360.000000, 74.304, -146.2137
365.000000, 74.325, -145.8610
370.000000, 74.349, -145.5462
375.000000, 74.375, -145.2571
382.000000, 74.408, -144.8040
387.000000, 74.424, -144.4777
395.000000, 74.444, -144.0035
400.000000, 74.453, -143.6772
406.000000, 74.468, -143.2878
412.000000, 74.483, -142.9211
418.000000, 74.491, -142.5512
425.000000, 74.490, -142.1367
431.000000, 74.485, -141.8424
437.000000, 74.500, -141.3857
444.000000, 74.522, -141.0019
450.000000, 74.531, -140.6747
455.000000, 74.535, -140.3339
462.000000, 74.540, -139.8469
468.000000, 74.545, -139.4873
475.000000, 74.543, -139.0741
482.000000, 74.541, -138.6104
487.000000, 74.539, -138.2728
494.000000, 74.537, -137.8292
500.000000, 74.536, -137.4510
508.000000, 74.533, -136.9148
515.000000, 74.529, -136.4521
522.000000, 74.529, -135.9615
530.000000, 74.525, -135.4261
538.000000, 74.517, -134.8769
545.000000, 74.508, -134.4107
552.000000, 74.504, -133.9361
560.000000, 74.501, -133.3666
570.000000, 74.498, -132.6079
580.000000, 74.494, -131.9244
590.000000, 74.491, -131.2321
600.000000, 74.485, -130.4875
608.000000, 74.478, -129.8754
615.000000, 74.473, -129.3228
622.000000, 74.467, -128.7833
630.000000, 74.460, -128.2038
640.000000, 74.452, -127.4796
650.000000, 74.444, -126.6873
660.000000, 74.443, -125.8925
670.000000, 74.440, -125.1136
680.000000, 74.434, -124.3430
690.000000, 74.429, -123.5214
700.000000, 74.435, -122.6982
710.000000, 74.437, -121.8625
720.000000, 74.433, -121.0389
730.000000, 74.429, -120.1671
740.000000, 74.432, -119.3389
750.000000, 74.441, -118.5431
762.000000, 74.446, -117.5590
775.000000, 74.449, -116.4257
788.000000, 74.454, -115.3376
800.000000, 74.461, -114.2941
812.000000, 74.469, -113.1878
825.000000, 74.496, -112.0009
838.000000, 74.531, -110.8111
850.000000, 74.559, -109.7230
862.000000, 74.593, -108.6248
875.000000, 74.630, -107.4126
885.000000, 74.664, -106.5042
900.000000, 74.727, -105.1835
912.000000, 74.783, -104.1280
925.000000, 74.843, -102.9862
938.000000, 74.904, -101.8717
950.000000, 74.968, -100.8762
962.000000, 75.036, -99.9265
975.000000, 75.110, -98.8791
988.000000, 75.183, -97.8626
1000.000000, 75.258, -96.9770
1015.000000, 75.365, -95.8939
1030.000000, 75.471, -94.8587
1044.000000, 75.569, -93.9196
1060.000000, 75.686, -92.8951
1075.000000, 75.788, -91.9812
1090.000000, 75.894, -91.0905
1106.000000, 76.009, -90.1773
1120.000000, 76.105, -89.4572
1138.000000, 76.224, -88.5936
1150.000000, 76.306, -88.0201
1172.000000, 76.449, -87.0243
1180.000000, 76.502, -86.6989
1206.000000, 76.661, -85.6510
1220.000000, 76.739, -85.0527
1241.000000, 76.857, -84.1780
1250.000000, 76.904, -83.8188
1265.000000, 76.982, -83.2443
1280.000000, 77.057, -82.6920
1315.000000, 77.232, -81.3679
1320.000000, 77.258, -81.1675
1340.000000, 77.359, -80.3604
1360.000000, 77.458, -79.6015
1380.000000, 77.562, -78.8641
1400.000000, 77.669, -78.1166
1430.000000, 77.833, -77.0823
1450.000000, 77.942, -76.4399
1475.000000, 78.075, -75.7165
1500.000000, 78.205, -75.0748
1525.000000, 78.333, -74.5022
1550.000000, 78.445, -73.9775
1575.000000, 78.544, -73.4793
1600.000000, 78.636, -72.9400
1625.000000, 78.720, -72.4138
1650.000000, 78.800, -71.8953
1675.000000, 78.874, -71.3622
1700.000000, 78.943, -70.7927
1725.000000, 79.012, -70.2159
1750.000000, 79.083, -69.6398
1775.000000, 79.156, -69.0390
1800.000000, 79.222, -68.3939
1825.000000, 79.287, -67.7571
1850.000000, 79.356, -67.1454
1875.000000, 79.425, -66.5121
1900.000000, 79.498, -65.8848
1925.000000, 79.574, -65.2826
1950.000000, 79.652, -64.6837
1975.000000, 79.727, -64.0933
2000.000000, 79.803, -63.5101
2030.000000, 79.894, -62.8193
2060.000000, 79.986, -62.1506
2090.000000, 80.080, -61.5080
2120.000000, 80.179, -60.8936
2140.000000, 80.248, -60.5041
2180.000000, 80.382, -59.7769
2200.000000, 80.448, -59.4238
2240.000000, 80.580, -58.7588
2270.000000, 80.680, -58.3048
2300.000000, 80.777, -57.8909
2330.000000, 80.872, -57.5170
2360.000000, 80.964, -57.1793
2400.000000, 81.082, -56.7818
2430.000000, 81.168, -56.4872
2470.000000, 81.276, -56.0905
2500.000000, 81.355, -55.8145
2540.000000, 81.461, -55.4736
2580.000000, 81.568, -55.1454
2620.000000, 81.671, -54.8714
2650.000000, 81.749, -54.7028
2690.000000, 81.847, -54.5284
2720.000000, 81.915, -54.4561
2760.000000, 82.003, -54.4224
2800.000000, 82.080, -54.4627
2850.000000, 82.167, -54.5952
2900.000000, 82.241, -54.7752
2950.000000, 82.300, -54.9778
3000.000000, 82.345, -55.1955
3040.000000, 82.373, -55.4093
3070.000000, 82.390, -55.5866
3110.000000, 82.407, -55.8419
3150.000000, 82.415, -56.0871
3200.000000, 82.409, -56.3606
3250.000000, 82.391, -56.6406
3300.000000, 82.360, -56.9245
3350.000000, 82.318, -57.1879
3400.000000, 82.267, -57.4372
3450.000000, 82.206, -57.6308
3500.000000, 82.135, -57.7787
3550.000000, 82.055, -57.8966
3600.000000, 81.969, -57.9803
3650.000000, 81.879, -58.0046
3700.000000, 81.786, -57.9754
3750.000000, 81.688, -57.9259
3820.000000, 81.545, -57.8180
3870.000000, 81.439, -57.6863
3950.000000, 81.262, -57.3850
4000.000000, 81.146, -57.1581
4060.000000, 81.006, -56.8296
4120.000000, 80.867, -56.4504
4180.000000, 80.727, -56.0434
4250.000000, 80.565, -55.4973
4310.000000, 80.424, -54.9851
4370.000000, 80.279, -54.4387
4440.000000, 80.108, -53.7574
4500.000000, 79.968, -53.1321
4550.000000, 79.853, -52.6086
4620.000000, 79.691, -51.8661
4680.000000, 79.555, -51.2157
4750.000000, 79.396, -50.4265
4820.000000, 79.231, -49.5996
4870.000000, 79.114, -48.9413
4940.000000, 78.956, -47.9169
5000.000000, 78.824, -46.9791
5080.000000, 78.650, -45.6896
5150.000000, 78.501, -44.5311
5220.000000, 78.353, -43.3157
5300.000000, 78.185, -41.8693
5380.000000, 78.022, -40.3916
5450.000000, 77.885, -39.0793
5520.000000, 77.752, -37.7121
5600.000000, 77.602, -36.1035
5700.000000, 77.420, -34.0273
5800.000000, 77.259, -31.8771
5900.000000, 77.114, -29.6398
6000.000000, 76.974, -27.3732
6080.000000, 76.873, -25.5110
6150.000000, 76.796, -23.8339
6220.000000, 76.729, -22.1418
6300.000000, 76.663, -20.1936
6400.000000, 76.599, -17.7163
6500.000000, 76.565, -15.2561
6600.000000, 76.548, -12.8066
6700.000000, 76.550, -10.3885
6800.000000, 76.578, -7.9708
6900.000000, 76.637, -5.5340
7000.000000, 76.733, -3.1970
7100.000000, 76.862, -0.9700
7200.000000, 77.028, 1.1129
7300.000000, 77.223, 3.0025
7400.000000, 77.434, 4.6676
7500.000000, 77.660, 6.0928
7620.000000, 77.951, 7.5060
7750.000000, 78.287, 8.6930
7880.000000, 78.633, 9.6516
8000.000000, 78.985, 10.4275
8120.000000, 79.419, 11.1233
8250.000000, 80.040, 11.3742
8380.000000, 80.841, 10.3264
8500.000000, 81.683, 7.3357
8620.000000, 82.479, 1.7381
8750.000000, 83.039, -7.2497
8850.000000, 83.101, -15.5319
9000.000000, 82.479, -27.9610
9120.000000, 81.463, -36.1204
9250.000000, 80.066, -42.1974
9380.000000, 78.578, -45.4616
9500.000000, 77.247, -46.4955
9620.000000, 76.014, -46.1106
9750.000000, 74.802, -44.5466
9880.000000, 73.712, -42.1952
10000.000000, 72.808, -39.5416
10150.000000, 71.800, -35.7886
10300.000000, 70.914, -31.6734
10440.000000, 70.176, -27.5735
10600.000000, 69.430, -22.6662
10750.000000, 68.824, -18.0179
10900.000000, 68.299, -13.3493
11060.000000, 67.821, -8.2885
11200.000000, 67.459, -3.7901
11380.000000, 67.044, 1.9382
11500.000000, 66.799, 5.6802
11720.000000, 66.424, 12.4107
11800.000000, 66.300, 14.9086
12060.000000, 65.932, 23.2397
12200.000000, 65.797, 27.9064
12410.000000, 65.670, 35.2090
12500.000000, 65.646, 38.3913
12650.000000, 65.665, 43.7657
12800.000000, 65.784, 49.1598
13150.000000, 66.399, 61.2943
13200.000000, 66.523, 62.9925
13400.000000, 67.106, 69.5335
13600.000000, 67.852, 75.3949
13800.000000, 68.776, 80.3303
14000.000000, 69.842, 84.2514
14300.000000, 71.743, 87.7694
14500.000000, 73.193, 88.2108
14750.000000, 75.218, 85.5611
15000.000000, 77.335, 77.5362
15250.000000, 78.990, 62.8723
15500.000000, 79.497, 43.8777
15750.000000, 78.663, 26.0360
16000.000000, 76.997, 13.6054
16250.000000, 75.172, 6.9712
16500.000000, 73.567, 4.1939
16750.000000, 72.249, 3.4453
17000.000000, 71.168, 3.5043
17250.000000, 70.251, 3.7753
17500.000000, 69.418, 3.7452
17750.000000, 68.572, 3.2123
18000.000000, 67.631, 1.9846
18250.000000, 66.517, 0.1136
18500.000000, 65.166, -2.2879
18750.000000, 63.519, -5.0828
19000.000000, 61.535, -7.8720
19250.000000, 59.190, -10.3820
19500.000000, 56.476, -12.2648
19750.000000, 53.539, -13.4870
