* Measurement data measured by REW V5.31.3
* Source: Input device not selected, no input selected, L, volume: no control
* Format: 256k Log Swept Sine, 1 sweep at -12.0 dBFS with no timing reference
* Dated: Sep 2, 2024 1:59:11 PM
* REW Settings:
*  C-weighting compensation: Off
*  Target level: 75.0 dB
* Note: ; 
* Measurement: Zero 2 (Stock M)
* Smoothing: 1/24 octave
* Frequency Step: 1/48 octave
* Start Frequency: 20.300 Hz
*
* Freq(Hz), SPL(dB), Phase(degrees)
20.299999, 84.264, -176.1145
20.600000, 84.243, -176.6715
20.900000, 84.205, -177.4512
21.200001, 84.148, -178.4019
21.400000, 84.104, -179.0826
21.799999, 84.012, 179.6262
22.000000, 83.973, 179.0991
22.400000, 83.933, 178.4175
22.700001, 83.941, 178.2466
23.000000, 83.975, 178.3079
23.299999, 84.020, 178.5128
23.600000, 84.056, 178.7747
24.000000, 84.070, 179.0905
24.299999, 84.050, 179.2307
24.700001, 84.000, 179.1965
25.000000, 83.962, 178.9639
25.400000, 83.936, 178.3858
25.799999, 83.951, 177.6216
26.200001, 84.004, 176.8802
26.500000, 84.055, 176.4550
26.900000, 84.108, 176.1370
27.200001, 84.122, 176.0746
27.600000, 84.088, 176.1405
28.000000, 84.006, 176.2241
28.500000, 83.886, 176.0393
29.000000, 83.830, 175.1960
29.500000, 83.867, 173.6564
30.000000, 83.944, 171.9121
30.400000, 83.979, 170.8698
30.700001, 83.973, 170.4805
31.100000, 83.930, 170.4891
31.500000, 83.867, 170.8483
32.000000, 83.786, 171.1222
32.500000, 83.696, 170.6617
33.000000, 83.582, 169.6097
33.500000, 83.462, 168.6815
34.000000, 83.385, 168.4607
34.500000, 83.381, 168.8754
35.000000, 83.423, 169.3372
35.500000, 83.443, 169.3650
36.000000, 83.400, 168.9470
36.500000, 83.314, 168.4124
37.000000, 83.240, 168.0629
37.500000, 83.222, 167.9265
38.200001, 83.266, 167.7200
38.700001, 83.299, 167.3749
39.500000, 83.316, 166.6433
40.000000, 83.318, 166.2326
40.599998, 83.290, 165.8468
41.200001, 83.179, 165.6699
41.799999, 82.990, 165.8587
42.500000, 82.821, 166.3058
43.099998, 82.817, 166.1714
43.700001, 82.873, 165.2797
44.400002, 82.845, 164.0749
45.000000, 82.720, 163.6835
45.500000, 82.600, 163.8057
46.200001, 82.472, 164.0567
46.799999, 82.402, 164.0729
47.500000, 82.371, 163.9500
48.200001, 82.386, 163.4944
48.700001, 82.378, 162.8435
49.400002, 82.283, 161.8846
50.000000, 82.159, 161.6367
50.799999, 82.067, 162.2593
51.500000, 82.066, 162.7971
52.200001, 82.053, 162.7515
53.000000, 82.009, 162.2522
53.799999, 81.981, 161.6005
54.500000, 81.926, 161.0306
55.200001, 81.813, 160.6582
56.000000, 81.691, 160.4474
57.000000, 81.636, 160.0838
58.000000, 81.600, 160.0837
59.000000, 81.567, 160.4577
60.000000, 81.497, 160.1508
60.799999, 81.401, 159.6711
61.500000, 81.331, 159.3115
62.200001, 81.273, 158.9879
63.000000, 81.206, 158.7318
64.000000, 81.094, 158.5749
65.000000, 80.927, 158.7229
66.000000, 80.853, 159.0485
67.000000, 80.849, 158.8597
68.000000, 80.790, 158.7954
69.000000, 80.781, 158.8392
70.000000, 80.824, 158.5595
71.000000, 80.815, 158.5379
72.000000, 80.718, 158.5726
73.000000, 80.580, 158.2375
74.000000, 80.501, 157.8763
75.000000, 80.446, 157.7184
76.199997, 80.347, 157.8033
77.500000, 80.332, 157.6611
78.800003, 80.288, 157.4929
80.000000, 80.186, 157.7365
81.199997, 80.088, 157.9705
82.500000, 80.007, 157.8824
83.800003, 79.913, 157.7106
85.000000, 79.844, 157.9738
86.199997, 79.777, 158.1606
87.500000, 79.708, 158.0210
88.500000, 79.660, 157.8414
90.000000, 79.573, 157.8139
91.199997, 79.522, 157.9772
92.500000, 79.482, 158.2159
93.800003, 79.411, 158.3384
95.000000, 79.331, 158.3384
96.199997, 79.252, 158.3578
97.500000, 79.170, 158.3574
98.800003, 79.097, 158.3745
100.000000, 79.036, 158.5869
101.500000, 78.953, 158.7313
103.000000, 78.878, 158.6465
104.400002, 78.815, 158.6737
106.000000, 78.758, 158.5971
107.500000, 78.692, 158.8495
109.000000, 78.612, 159.3327
110.599998, 78.529, 159.6279
112.000000, 78.439, 159.7447
113.800003, 78.339, 159.9611
115.000000, 78.286, 160.0018
117.199997, 78.184, 160.0422
118.000000, 78.153, 160.0483
120.599998, 78.086, 160.2701
122.000000, 78.036, 160.4102
124.099998, 77.937, 160.5584
125.000000, 77.891, 160.7328
126.500000, 77.816, 161.0240
128.000000, 77.751, 161.1700
131.500000, 77.628, 161.5123
132.000000, 77.608, 161.5391
134.000000, 77.550, 161.6622
136.000000, 77.503, 161.9757
138.000000, 77.424, 162.3729
140.000000, 77.327, 162.5830
143.000000, 77.204, 162.9304
145.000000, 77.142, 163.2195
147.500000, 77.067, 163.6193
150.000000, 76.988, 163.9082
152.500000, 76.902, 164.1446
155.000000, 76.818, 164.6233
157.500000, 76.741, 165.0032
160.000000, 76.661, 165.3447
162.500000, 76.584, 165.7606
165.000000, 76.509, 166.0666
167.500000, 76.444, 166.3630
170.000000, 76.378, 166.8067
172.500000, 76.308, 167.2737
175.000000, 76.246, 167.6500
177.500000, 76.186, 167.9303
180.000000, 76.122, 168.3085
182.500000, 76.058, 168.7826
185.000000, 75.999, 169.1441
187.500000, 75.943, 169.5093
190.000000, 75.891, 169.8955
192.500000, 75.834, 170.2922
195.000000, 75.775, 170.7038
197.500000, 75.715, 171.1114
200.000000, 75.659, 171.4684
203.000000, 75.598, 171.8775
206.000000, 75.544, 172.3533
209.000000, 75.494, 172.8467
212.000000, 75.435, 173.2949
214.000000, 75.389, 173.5825
218.000000, 75.305, 174.2790
220.000000, 75.269, 174.5976
224.000000, 75.199, 175.1618
227.000000, 75.149, 175.6275
230.000000, 75.096, 176.1389
233.000000, 75.038, 176.7001
236.000000, 74.983, 177.2302
240.000000, 74.924, 177.7797
243.000000, 74.885, 178.1695
247.000000, 74.830, 178.7706
250.000000, 74.783, 179.2856
254.000000, 74.719, -179.9983
258.000000, 74.655, -179.3571
262.000000, 74.597, -178.7157
265.000000, 74.560, -178.2541
269.000000, 74.513, -177.7157
272.000000, 74.473, -177.3349
276.000000, 74.415, -176.7294
280.000000, 74.369, -176.0789
285.000000, 74.318, -175.3022
290.000000, 74.270, -174.5510
295.000000, 74.222, -173.8109
300.000000, 74.174, -173.0899
304.000000, 74.131, -172.4920
307.000000, 74.099, -172.0425
311.000000, 74.060, -171.4163
315.000000, 74.020, -170.8196
320.000000, 73.969, -170.0484
325.000000, 73.929, -169.3177
330.000000, 73.895, -168.6250
335.000000, 73.859, -167.9065
340.000000, 73.825, -167.1943
345.000000, 73.794, -166.5156
350.000000, 73.763, -165.8183
355.000000, 73.726, -165.0740
360.000000, 73.685, -164.3356
365.000000, 73.646, -163.6492
370.000000, 73.610, -163.0007
375.000000, 73.582, -162.3404
382.000000, 73.555, -161.4169
387.000000, 73.539, -160.7058
395.000000, 73.499, -159.6155
400.000000, 73.466, -158.9428
406.000000, 73.428, -158.1206
412.000000, 73.395, -157.3228
418.000000, 73.366, -156.5363
425.000000, 73.339, -155.5846
431.000000, 73.317, -154.8208
437.000000, 73.296, -154.0364
444.000000, 73.279, -153.0844
450.000000, 73.266, -152.3332
455.000000, 73.250, -151.7266
462.000000, 73.230, -150.8658
468.000000, 73.220, -150.1261
475.000000, 73.208, -149.2923
482.000000, 73.186, -148.4378
487.000000, 73.171, -147.7746
494.000000, 73.151, -146.8983
500.000000, 73.135, -146.2575
508.000000, 73.114, -145.3370
515.000000, 73.098, -144.4359
522.000000, 73.080, -143.6016
530.000000, 73.059, -142.6375
538.000000, 73.041, -141.6791
545.000000, 73.026, -140.8288
552.000000, 73.013, -139.9826
560.000000, 73.001, -139.0978
570.000000, 72.982, -137.9150
580.000000, 72.968, -136.7253
590.000000, 72.960, -135.5868
600.000000, 72.959, -134.4501
608.000000, 72.959, -133.5794
615.000000, 72.964, -132.8439
622.000000, 72.970, -132.0663
630.000000, 72.976, -131.1267
640.000000, 72.977, -130.0158
650.000000, 72.973, -128.8635
660.000000, 72.964, -127.6387
670.000000, 72.958, -126.4957
680.000000, 72.958, -125.3904
690.000000, 72.963, -124.3317
700.000000, 72.972, -123.2731
710.000000, 72.978, -122.1996
720.000000, 72.986, -121.0735
730.000000, 73.002, -119.9188
740.000000, 73.022, -118.7845
750.000000, 73.039, -117.6983
762.000000, 73.053, -116.4088
775.000000, 73.075, -114.9623
788.000000, 73.098, -113.4659
800.000000, 73.116, -112.1363
812.000000, 73.143, -110.8017
825.000000, 73.182, -109.4073
838.000000, 73.228, -108.0190
850.000000, 73.276, -106.6883
862.000000, 73.328, -105.3504
875.000000, 73.385, -103.9640
885.000000, 73.427, -102.9320
900.000000, 73.495, -101.3216
912.000000, 73.553, -100.0233
925.000000, 73.623, -98.6606
938.000000, 73.701, -97.3506
950.000000, 73.776, -96.1437
962.000000, 73.853, -94.9705
975.000000, 73.943, -93.7274
988.000000, 74.044, -92.4887
1000.000000, 74.137, -91.3738
1015.000000, 74.257, -90.0542
1030.000000, 74.382, -88.8597
1044.000000, 74.498, -87.7526
1060.000000, 74.632, -86.4677
1075.000000, 74.762, -85.3229
1090.000000, 74.890, -84.2389
1106.000000, 75.023, -83.1516
1120.000000, 75.138, -82.2142
1138.000000, 75.280, -81.1134
1150.000000, 75.373, -80.4279
1172.000000, 75.552, -79.2471
1180.000000, 75.619, -78.8374
1206.000000, 75.836, -77.5280
1220.000000, 75.945, -76.8376
1241.000000, 76.098, -75.8436
1250.000000, 76.161, -75.4444
1265.000000, 76.264, -74.7786
1280.000000, 76.363, -74.1304
1315.000000, 76.586, -72.7935
1320.000000, 76.617, -72.6060
1340.000000, 76.741, -71.8343
1360.000000, 76.868, -71.0627
1380.000000, 76.985, -70.3152
1400.000000, 77.099, -69.5844
1430.000000, 77.270, -68.5169
1450.000000, 77.381, -67.8136
1475.000000, 77.514, -66.9618
1500.000000, 77.641, -66.1225
1525.000000, 77.765, -65.2943
1550.000000, 77.879, -64.4757
1575.000000, 77.989, -63.6277
1600.000000, 78.108, -62.8622
1625.000000, 78.238, -62.1205
1650.000000, 78.364, -61.3490
1675.000000, 78.485, -60.6197
1700.000000, 78.604, -59.9154
1725.000000, 78.724, -59.2214
1750.000000, 78.839, -58.5505
1775.000000, 78.955, -57.8881
1800.000000, 79.077, -57.2611
1825.000000, 79.198, -56.6839
1850.000000, 79.322, -56.1430
1875.000000, 79.447, -55.6087
1900.000000, 79.570, -55.0933
1925.000000, 79.691, -54.5984
1950.000000, 79.806, -54.1357
1975.000000, 79.920, -53.7188
2000.000000, 80.037, -53.3418
2030.000000, 80.177, -52.8831
2060.000000, 80.320, -52.4846
2090.000000, 80.461, -52.1334
2120.000000, 80.601, -51.8149
2140.000000, 80.693, -51.6405
2180.000000, 80.867, -51.3629
2200.000000, 80.948, -51.2433
2240.000000, 81.097, -51.0524
2270.000000, 81.204, -50.9693
2300.000000, 81.307, -50.9185
2330.000000, 81.403, -50.9005
2360.000000, 81.497, -50.9271
2400.000000, 81.613, -51.0159
2430.000000, 81.694, -51.1227
2470.000000, 81.789, -51.2929
2500.000000, 81.852, -51.4485
2540.000000, 81.927, -51.6934
2580.000000, 81.989, -51.9317
2620.000000, 82.037, -52.1924
2650.000000, 82.067, -52.4105
2690.000000, 82.098, -52.7413
2720.000000, 82.112, -52.9976
2760.000000, 82.122, -53.3494
2800.000000, 82.121, -53.6813
2850.000000, 82.105, -54.0583
2900.000000, 82.075, -54.4273
2950.000000, 82.035, -54.7449
3000.000000, 81.981, -54.9901
3040.000000, 81.921, -55.1693
3070.000000, 81.869, -55.2768
3110.000000, 81.796, -55.3906
3150.000000, 81.717, -55.4760
3200.000000, 81.612, -55.5157
3250.000000, 81.508, -55.4995
3300.000000, 81.400, -55.4259
3350.000000, 81.290, -55.3270
3400.000000, 81.178, -55.1495
3450.000000, 81.059, -54.9137
3500.000000, 80.935, -54.6456
3550.000000, 80.810, -54.3485
3600.000000, 80.692, -54.0065
3650.000000, 80.574, -53.6102
3700.000000, 80.455, -53.2036
3750.000000, 80.336, -52.7851
3820.000000, 80.172, -52.1196
3870.000000, 80.056, -51.6337
3950.000000, 79.865, -50.8099
4000.000000, 79.746, -50.2727
4060.000000, 79.605, -49.6488
4120.000000, 79.466, -48.9620
4180.000000, 79.326, -48.2686
4250.000000, 79.164, -47.4614
4310.000000, 79.029, -46.7518
4370.000000, 78.895, -46.0155
4440.000000, 78.735, -45.1361
4500.000000, 78.595, -44.3646
4550.000000, 78.472, -43.7118
4620.000000, 78.299, -42.7962
4680.000000, 78.157, -42.0147
4750.000000, 77.997, -41.0581
4820.000000, 77.843, -40.0614
4870.000000, 77.733, -39.3259
4940.000000, 77.573, -38.2952
5000.000000, 77.429, -37.4182
5080.000000, 77.233, -36.2155
5150.000000, 77.059, -35.1480
5220.000000, 76.886, -34.0516
5300.000000, 76.685, -32.7382
5380.000000, 76.480, -31.4053
5450.000000, 76.304, -30.1725
5520.000000, 76.134, -28.9074
5600.000000, 75.942, -27.4400
5700.000000, 75.705, -25.5430
5800.000000, 75.480, -23.5981
5900.000000, 75.259, -21.6631
6000.000000, 75.034, -19.7539
6080.000000, 74.850, -18.1528
6150.000000, 74.689, -16.6835
6220.000000, 74.526, -15.1870
6300.000000, 74.340, -13.4579
6400.000000, 74.111, -11.2236
6500.000000, 73.884, -8.8662
6600.000000, 73.666, -6.3495
6700.000000, 73.456, -3.7218
6800.000000, 73.259, -1.0179
6900.000000, 73.086, 1.8046
7000.000000, 72.934, 4.7479
7100.000000, 72.797, 7.8283
7200.000000, 72.679, 11.0116
7300.000000, 72.595, 14.2556
7400.000000, 72.551, 17.5381
7500.000000, 72.532, 20.8296
7620.000000, 72.554, 24.8639
7750.000000, 72.642, 29.3083
7880.000000, 72.793, 33.7026
8000.000000, 72.996, 37.7099
8120.000000, 73.270, 41.6155
8250.000000, 73.648, 45.6493
8380.000000, 74.109, 49.4753
8500.000000, 74.621, 52.7552
8620.000000, 75.224, 55.7026
8750.000000, 75.991, 58.4341
8850.000000, 76.669, 60.1205
9000.000000, 77.842, 61.6285
9120.000000, 78.914, 61.6058
9250.000000, 80.207, 59.7942
9380.000000, 81.573, 55.4451
9500.000000, 82.763, 48.6398
9620.000000, 83.689, 39.0481
9750.000000, 84.157, 26.3296
9880.000000, 83.921, 13.0892
10000.000000, 83.126, 2.2825
10150.000000, 81.635, -7.6456
10300.000000, 79.942, -13.3033
10440.000000, 78.408, -15.3373
10600.000000, 76.856, -14.7098
10750.000000, 75.692, -12.1128
10900.000000, 74.862, -8.6758
11060.000000, 74.305, -5.1845
11200.000000, 74.004, -2.7543
11380.000000, 73.749, -0.6518
11500.000000, 73.619, 0.1837
11720.000000, 73.402, 0.8294
11800.000000, 73.320, 0.8175
12060.000000, 73.007, 0.0887
12200.000000, 72.792, -0.6732
12410.000000, 72.399, -2.1539
12500.000000, 72.202, -2.8414
12650.000000, 71.838, -3.9813
12800.000000, 71.429, -5.0635
13150.000000, 70.344, -7.0678
13200.000000, 70.177, -7.2703
13400.000000, 69.498, -7.8324
13600.000000, 68.807, -8.0965
13800.000000, 68.118, -8.1346
14000.000000, 67.407, -8.0085
14300.000000, 66.319, -7.4327
14500.000000, 65.571, -6.5063
14750.000000, 64.633, -4.7139
15000.000000, 63.749, -2.2534
15250.000000, 62.959, 0.7696
15500.000000, 62.287, 4.2162
15750.000000, 61.715, 8.0539
16000.000000, 61.294, 12.3068
16250.000000, 61.028, 16.2712
16500.000000, 60.939, 19.7596
16750.000000, 60.993, 22.8770
17000.000000, 61.167, 25.2872
17250.000000, 61.422, 26.5576
17500.000000, 61.698, 26.2738
17750.000000, 61.866, 24.4435
18000.000000, 61.843, 21.9162
18250.000000, 61.687, 19.8338
18500.000000, 61.585, 17.7122
18750.000000, 61.480, 13.5938
19000.000000, 60.969, 8.1534
19250.000000, 60.100, 3.5768
19500.000000, 59.032, -0.2144
19750.000000, 57.742, -3.3257
20000.000000, 56.718, -4.6540
