* Measurement data measured by REW V5.31.3
* Source: Input device not selected, no input selected, L, volume: no control
* Format: 256k Log Swept Sine, 1 sweep at -11.0 dBFS with no timing reference
* Dated: May 24, 2025 3:26:45 AM
* REW Settings:
*  C-weighting compensation: Off
*  Target level: 75.0 dB
* Note: 
* Measurement: Zere Blue 2 (Foam) L
* Smoothing: 1/24 octave
* Frequency Step: 1/48 octave
* Start Frequency: 20.300 Hz
*
* Freq(Hz), SPL(dB), Phase(degrees)
20.299999, 83.433, -170.1312
20.600000, 83.430, -170.5747
20.900000, 83.425, -171.0512
21.200001, 83.421, -171.5195
21.400000, 83.419, -171.8358
21.799999, 83.419, -172.5025
22.000000, 83.419, -172.8564
22.400000, 83.414, -173.5884
22.700001, 83.405, -174.1314
23.000000, 83.393, -174.6435
23.299999, 83.379, -175.1122
23.600000, 83.368, -175.5400
24.000000, 83.358, -176.0726
24.299999, 83.353, -176.4670
24.700001, 83.348, -177.0069
25.000000, 83.342, -177.4222
25.400000, 83.331, -177.9760
25.799999, 83.317, -178.5137
26.200001, 83.303, -179.0318
26.500000, 83.293, -179.4133
26.900000, 83.280, -179.9220
27.200001, 83.270, 179.6940
27.600000, 83.252, 179.1823
28.000000, 83.231, 178.6797
28.500000, 83.202, 178.0746
29.000000, 83.171, 177.4960
29.500000, 83.141, 176.9383
30.000000, 83.114, 176.3958
30.400000, 83.095, 175.9687
30.700001, 83.081, 175.6495
31.100000, 83.063, 175.2224
31.500000, 83.043, 174.7943
32.000000, 83.014, 174.2664
32.500000, 82.980, 173.7599
33.000000, 82.945, 173.2781
33.500000, 82.911, 172.8083
34.000000, 82.880, 172.3373
34.500000, 82.852, 171.8667
35.000000, 82.823, 171.4080
35.500000, 82.795, 170.9647
36.000000, 82.763, 170.5270
36.500000, 82.728, 170.0873
37.000000, 82.688, 169.6536
37.500000, 82.647, 169.2398
38.200001, 82.597, 168.6942
38.700001, 82.565, 168.3127
39.500000, 82.511, 167.7034
40.000000, 82.475, 167.3275
40.599998, 82.431, 166.8753
41.200001, 82.389, 166.4183
41.799999, 82.348, 165.9747
42.500000, 82.298, 165.4939
43.099998, 82.253, 165.0946
43.700001, 82.205, 164.6828
44.400002, 82.145, 164.1984
45.000000, 82.094, 163.8056
45.500000, 82.054, 163.4986
46.200001, 81.998, 163.0832
46.799999, 81.949, 162.7252
47.500000, 81.893, 162.3030
48.200001, 81.839, 161.8914
48.700001, 81.801, 161.6144
49.400002, 81.746, 161.2547
50.000000, 81.695, 160.9603
50.799999, 81.627, 160.5504
51.500000, 81.570, 160.1540
52.200001, 81.513, 159.7452
53.000000, 81.444, 159.3237
53.799999, 81.373, 158.9686
54.500000, 81.314, 158.6740
55.200001, 81.256, 158.3717
56.000000, 81.189, 158.0384
57.000000, 81.103, 157.6591
58.000000, 81.012, 157.2871
59.000000, 80.917, 156.9451
60.000000, 80.833, 156.5596
60.799999, 80.768, 156.1784
61.500000, 80.708, 155.8650
62.200001, 80.649, 155.6108
63.000000, 80.581, 155.3581
64.000000, 80.489, 155.0533
65.000000, 80.397, 154.7670
66.000000, 80.312, 154.4682
67.000000, 80.224, 154.1494
68.000000, 80.131, 153.8457
69.000000, 80.041, 153.5750
70.000000, 79.955, 153.3265
71.000000, 79.868, 153.0872
72.000000, 79.778, 152.8486
73.000000, 79.688, 152.6287
74.000000, 79.601, 152.4639
75.000000, 79.511, 152.3177
76.199997, 79.395, 152.1160
77.500000, 79.273, 151.9081
78.800003, 79.161, 151.7374
80.000000, 79.053, 151.5704
81.199997, 78.946, 151.4149
82.500000, 78.838, 151.2491
83.800003, 78.722, 151.0670
85.000000, 78.609, 150.9340
86.199997, 78.504, 150.8067
87.500000, 78.392, 150.7208
88.500000, 78.304, 150.6942
90.000000, 78.167, 150.6730
91.199997, 78.060, 150.6719
92.500000, 77.950, 150.6115
93.800003, 77.839, 150.5533
95.000000, 77.737, 150.5725
96.199997, 77.636, 150.5973
97.500000, 77.524, 150.5804
98.800003, 77.411, 150.5873
100.000000, 77.311, 150.6605
101.500000, 77.187, 150.7659
103.000000, 77.060, 150.8425
104.400002, 76.944, 150.9723
106.000000, 76.815, 151.1716
107.500000, 76.694, 151.3541
109.000000, 76.573, 151.4977
110.599998, 76.446, 151.6938
112.000000, 76.334, 151.9103
113.800003, 76.191, 152.1995
115.000000, 76.098, 152.3552
117.199997, 75.924, 152.6428
118.000000, 75.859, 152.7588
120.599998, 75.664, 153.2158
122.000000, 75.573, 153.5636
124.099998, 75.423, 154.0446
125.000000, 75.355, 154.2538
126.500000, 75.245, 154.5870
128.000000, 75.140, 154.9264
131.500000, 74.908, 155.8966
132.000000, 74.875, 156.0272
134.000000, 74.750, 156.5081
136.000000, 74.633, 157.0067
138.000000, 74.506, 157.6541
140.000000, 74.375, 158.2745
143.000000, 74.194, 159.1360
145.000000, 74.080, 159.8286
147.500000, 73.955, 160.6248
150.000000, 73.832, 161.4344
152.500000, 73.708, 162.3220
155.000000, 73.583, 163.1942
157.500000, 73.469, 164.0403
160.000000, 73.373, 164.9164
162.500000, 73.262, 165.8492
165.000000, 73.159, 166.7169
167.500000, 73.070, 167.5570
170.000000, 72.991, 168.5045
172.500000, 72.919, 169.4380
175.000000, 72.850, 170.3972
177.500000, 72.788, 171.4159
180.000000, 72.720, 172.3730
182.500000, 72.648, 173.2790
185.000000, 72.581, 174.1777
187.500000, 72.532, 175.0632
190.000000, 72.502, 175.9614
192.500000, 72.473, 176.8175
195.000000, 72.435, 177.6915
197.500000, 72.395, 178.5780
200.000000, 72.369, 179.4456
203.000000, 72.338, -179.5392
206.000000, 72.299, -178.5196
209.000000, 72.274, -177.5029
212.000000, 72.258, -176.5581
214.000000, 72.249, -175.9767
218.000000, 72.246, -174.8184
220.000000, 72.242, -174.2206
224.000000, 72.235, -173.0068
227.000000, 72.236, -172.0629
230.000000, 72.236, -171.1853
233.000000, 72.243, -170.3595
236.000000, 72.253, -169.5861
240.000000, 72.256, -168.6140
243.000000, 72.253, -167.8309
247.000000, 72.259, -166.8238
250.000000, 72.272, -166.1281
254.000000, 72.298, -165.1424
258.000000, 72.330, -164.2269
262.000000, 72.354, -163.4907
265.000000, 72.369, -162.8906
269.000000, 72.389, -162.1027
272.000000, 72.406, -161.5092
276.000000, 72.430, -160.7014
280.000000, 72.456, -159.9747
285.000000, 72.490, -159.0450
290.000000, 72.521, -158.1563
295.000000, 72.560, -157.3287
300.000000, 72.599, -156.5536
304.000000, 72.630, -155.9275
307.000000, 72.650, -155.4614
311.000000, 72.675, -154.8523
315.000000, 72.694, -154.2738
320.000000, 72.722, -153.6290
325.000000, 72.754, -152.9159
330.000000, 72.781, -152.1524
335.000000, 72.805, -151.5138
340.000000, 72.832, -150.9480
345.000000, 72.853, -150.3603
350.000000, 72.874, -149.7301
355.000000, 72.900, -149.1150
360.000000, 72.926, -148.5044
365.000000, 72.953, -147.9336
370.000000, 72.975, -147.3492
375.000000, 72.991, -146.7842
382.000000, 73.013, -146.0424
387.000000, 73.030, -145.5063
395.000000, 73.052, -144.6925
400.000000, 73.068, -144.1723
406.000000, 73.094, -143.5869
412.000000, 73.112, -143.0322
418.000000, 73.128, -142.4412
425.000000, 73.141, -141.7427
431.000000, 73.152, -141.1535
437.000000, 73.164, -140.5659
444.000000, 73.178, -139.8839
450.000000, 73.195, -139.3257
455.000000, 73.207, -138.8293
462.000000, 73.213, -138.1852
468.000000, 73.214, -137.6801
475.000000, 73.218, -137.0876
482.000000, 73.221, -136.4651
487.000000, 73.227, -136.0192
494.000000, 73.233, -135.3885
500.000000, 73.236, -134.8245
508.000000, 73.239, -134.0751
515.000000, 73.244, -133.4522
522.000000, 73.246, -132.7930
530.000000, 73.245, -132.0156
538.000000, 73.248, -131.2939
545.000000, 73.253, -130.6439
552.000000, 73.255, -129.9994
560.000000, 73.255, -129.3374
570.000000, 73.257, -128.4259
580.000000, 73.262, -127.4491
590.000000, 73.260, -126.5307
600.000000, 73.259, -125.6376
608.000000, 73.263, -124.9034
615.000000, 73.266, -124.2208
622.000000, 73.268, -123.5320
630.000000, 73.268, -122.7623
640.000000, 73.267, -121.8431
650.000000, 73.269, -120.9650
660.000000, 73.267, -120.0569
670.000000, 73.261, -119.1126
680.000000, 73.260, -118.1299
690.000000, 73.265, -117.1712
700.000000, 73.274, -116.1965
710.000000, 73.285, -115.2107
720.000000, 73.294, -114.2333
730.000000, 73.304, -113.2321
740.000000, 73.318, -112.2498
750.000000, 73.330, -111.2525
762.000000, 73.340, -110.0597
775.000000, 73.360, -108.7754
788.000000, 73.385, -107.4498
800.000000, 73.402, -106.2300
812.000000, 73.424, -105.0092
825.000000, 73.465, -103.7652
838.000000, 73.510, -102.4506
850.000000, 73.544, -101.1710
862.000000, 73.588, -99.9469
875.000000, 73.640, -98.6545
885.000000, 73.681, -97.6888
900.000000, 73.749, -96.2356
912.000000, 73.804, -95.0469
925.000000, 73.868, -93.7692
938.000000, 73.943, -92.5446
950.000000, 74.014, -91.4564
962.000000, 74.083, -90.3788
975.000000, 74.160, -89.1932
988.000000, 74.248, -88.0235
1000.000000, 74.333, -86.9547
1015.000000, 74.447, -85.6979
1030.000000, 74.561, -84.5317
1044.000000, 74.666, -83.4546
1060.000000, 74.787, -82.2954
1075.000000, 74.904, -81.2676
1090.000000, 75.022, -80.2585
1106.000000, 75.145, -79.2541
1120.000000, 75.250, -78.4137
1138.000000, 75.380, -77.3710
1150.000000, 75.465, -76.7325
1172.000000, 75.618, -75.5853
1180.000000, 75.672, -75.1767
1206.000000, 75.848, -73.8940
1220.000000, 75.935, -73.2166
1241.000000, 76.056, -72.2373
1250.000000, 76.107, -71.8314
1265.000000, 76.190, -71.1640
1280.000000, 76.270, -70.4948
1315.000000, 76.448, -68.8830
1320.000000, 76.473, -68.6589
1340.000000, 76.572, -67.7633
1360.000000, 76.670, -66.8457
1380.000000, 76.768, -65.9513
1400.000000, 76.868, -65.0132
1430.000000, 77.022, -63.5552
1450.000000, 77.132, -62.6430
1475.000000, 77.273, -61.5155
1500.000000, 77.421, -60.4129
1525.000000, 77.573, -59.3759
1550.000000, 77.731, -58.4091
1575.000000, 77.896, -57.5245
1600.000000, 78.061, -56.7361
1625.000000, 78.223, -56.0508
1650.000000, 78.376, -55.4888
1675.000000, 78.519, -55.0027
1700.000000, 78.649, -54.5819
1725.000000, 78.763, -54.1905
1750.000000, 78.863, -53.8042
1775.000000, 78.953, -53.4029
1800.000000, 79.034, -52.9969
1825.000000, 79.106, -52.5672
1850.000000, 79.176, -52.1163
1875.000000, 79.244, -51.6327
1900.000000, 79.309, -51.1119
1925.000000, 79.372, -50.5777
1950.000000, 79.434, -50.0452
1975.000000, 79.491, -49.5092
2000.000000, 79.547, -48.9553
2030.000000, 79.624, -48.2601
2060.000000, 79.699, -47.5688
2090.000000, 79.774, -46.8903
2120.000000, 79.851, -46.1824
2140.000000, 79.903, -45.7149
2180.000000, 80.008, -44.8155
2200.000000, 80.063, -44.3753
2240.000000, 80.173, -43.5244
2270.000000, 80.252, -42.9075
2300.000000, 80.331, -42.3143
2330.000000, 80.412, -41.7367
2360.000000, 80.494, -41.1875
2400.000000, 80.603, -40.4550
2430.000000, 80.683, -39.9177
2470.000000, 80.790, -39.2741
2500.000000, 80.867, -38.8345
2540.000000, 80.968, -38.2800
2580.000000, 81.068, -37.7268
2620.000000, 81.165, -37.2050
2650.000000, 81.237, -36.8477
2690.000000, 81.328, -36.3985
2720.000000, 81.392, -36.0788
2760.000000, 81.479, -35.6830
2800.000000, 81.565, -35.2970
2850.000000, 81.666, -34.8798
2900.000000, 81.757, -34.5062
2950.000000, 81.843, -34.1632
3000.000000, 81.923, -33.8589
3040.000000, 81.983, -33.6488
3070.000000, 82.025, -33.5151
3110.000000, 82.076, -33.3460
3150.000000, 82.121, -33.1762
3200.000000, 82.167, -32.9948
3250.000000, 82.206, -32.8289
3300.000000, 82.240, -32.6789
3350.000000, 82.265, -32.5344
3400.000000, 82.282, -32.3928
3450.000000, 82.295, -32.2561
3500.000000, 82.301, -32.1103
3550.000000, 82.302, -31.9516
3600.000000, 82.298, -31.7892
3650.000000, 82.288, -31.6212
3700.000000, 82.275, -31.4339
3750.000000, 82.258, -31.2382
3820.000000, 82.229, -30.9472
3870.000000, 82.204, -30.7359
3950.000000, 82.158, -30.3971
4000.000000, 82.128, -30.1648
4060.000000, 82.089, -29.8914
4120.000000, 82.044, -29.6156
4180.000000, 81.996, -29.3286
4250.000000, 81.937, -28.9731
4310.000000, 81.882, -28.6975
4370.000000, 81.825, -28.4136
4440.000000, 81.755, -28.0680
4500.000000, 81.689, -27.7607
4550.000000, 81.632, -27.5052
4620.000000, 81.547, -27.1754
4680.000000, 81.469, -26.8874
4750.000000, 81.371, -26.5298
4820.000000, 81.267, -26.1582
4870.000000, 81.190, -25.8880
4940.000000, 81.077, -25.4900
5000.000000, 80.972, -25.1180
5080.000000, 80.822, -24.5998
5150.000000, 80.684, -24.1088
5220.000000, 80.542, -23.5469
5300.000000, 80.378, -22.8419
5380.000000, 80.213, -22.1335
5450.000000, 80.059, -21.4911
5520.000000, 79.896, -20.7501
5600.000000, 79.710, -19.8019
5700.000000, 79.483, -18.4838
5800.000000, 79.267, -17.0516
5900.000000, 79.059, -15.6195
6000.000000, 78.842, -14.0897
6080.000000, 78.672, -12.7290
6150.000000, 78.531, -11.4726
6220.000000, 78.398, -10.1625
6300.000000, 78.255, -8.6147
6400.000000, 78.093, -6.6240
6500.000000, 77.945, -4.5650
6600.000000, 77.811, -2.5005
6700.000000, 77.698, -0.4092
6800.000000, 77.602, 1.7553
6900.000000, 77.527, 3.9446
7000.000000, 77.476, 6.1561
7100.000000, 77.455, 8.3409
7200.000000, 77.464, 10.5020
7300.000000, 77.499, 12.5821
7400.000000, 77.555, 14.5265
7500.000000, 77.632, 16.3738
7620.000000, 77.757, 18.4371
7750.000000, 77.927, 20.4868
7880.000000, 78.128, 22.3075
8000.000000, 78.349, 23.7195
8120.000000, 78.606, 24.8309
8250.000000, 78.921, 25.5677
8380.000000, 79.257, 25.7369
8500.000000, 79.576, 25.3462
8620.000000, 79.892, 24.3603
8750.000000, 80.214, 22.5306
8850.000000, 80.428, 20.5433
9000.000000, 80.640, 16.6314
9120.000000, 80.669, 12.8173
9250.000000, 80.516, 8.2920
9380.000000, 80.140, 3.8313
9500.000000, 79.605, 0.2874
9620.000000, 78.933, -2.3183
9750.000000, 78.120, -3.8953
9880.000000, 77.290, -4.1833
10000.000000, 76.558, -3.4578
10150.000000, 75.732, -1.5488
10300.000000, 75.021, 1.1199
10440.000000, 74.462, 4.0499
10600.000000, 73.929, 7.7591
10750.000000, 73.530, 11.4717
10900.000000, 73.218, 15.2911
11060.000000, 72.972, 19.4427
11200.000000, 72.828, 23.1504
11380.000000, 72.745, 27.9275
11500.000000, 72.749, 31.0637
11720.000000, 72.880, 36.7068
11800.000000, 72.968, 38.7201
12060.000000, 73.403, 45.0783
12200.000000, 73.740, 48.3467
12410.000000, 74.407, 52.8439
12500.000000, 74.759, 54.5784
12650.000000, 75.436, 57.1489
12800.000000, 76.243, 59.1883
13150.000000, 78.750, 60.2076
13200.000000, 79.182, 59.6729
13400.000000, 81.024, 54.7848
13600.000000, 82.768, 44.3665
13800.000000, 83.851, 28.4398
14000.000000, 83.794, 10.1690
14300.000000, 81.770, -11.8085
14500.000000, 79.872, -19.9441
14750.000000, 77.633, -24.2424
15000.000000, 75.818, -24.6604
15250.000000, 74.425, -23.2317
15500.000000, 73.375, -21.0969
15750.000000, 72.601, -18.7196
16000.000000, 72.056, -16.3791
16250.000000, 71.704, -14.4037
16500.000000, 71.500, -12.8652
16750.000000, 71.396, -11.9308
17000.000000, 71.354, -11.8171
17250.000000, 71.332, -12.6140
17500.000000, 71.276, -14.4171
17750.000000, 71.109, -17.1967
18000.000000, 70.768, -20.8438
18250.000000, 70.203, -25.3017
18500.000000, 69.369, -30.3649
18750.000000, 68.253, -35.8814
19000.000000, 66.853, -41.7979
19250.000000, 65.170, -48.1323
19500.000000, 63.194, -55.2346
19750.000000, 61.033, -63.1682
